Read Model from: ./ucf3/
Export Model to: ./ucf3/ucf3_fhf.json
idx_in [0, 1, 2, 3, 4, 5, 6]
idx_out [7, 8, 9, 10]
make_mimo_block iir
H1s[0][0]  Real Poles: [-114.60101272  -23.10236309] Freqs [Hz]: []
H1s[0][1]  Real Poles: [-113.51951357  -25.86469415] Freqs [Hz]: []
H1s[0][2]  Real Poles: [-73.67217243 -73.67217243] Freqs [Hz]: [4.322989842238531]
H1s[0][3]  Real Poles: [-79.37976554 -79.37976554] Freqs [Hz]: [4.513878098026251]
H1s[1][0]  Real Poles: [-77.25318044 -77.25318044] Freqs [Hz]: [5.0419179547475315]
H1s[1][1]  Real Poles: [-75.37233591 -75.37233591] Freqs [Hz]: [3.5861830278735933]
H1s[1][2]  Real Poles: [-114.69933238  -22.75961909] Freqs [Hz]: []
H1s[1][3]  Real Poles: [-81.7625761 -81.7625761] Freqs [Hz]: [5.876339923923606]
H1s[2][0]  Real Poles: [-76.52169496 -76.52169496] Freqs [Hz]: [3.558026734933911]
H1s[2][1]  Real Poles: [-114.46572101  -21.133618  ] Freqs [Hz]: []
H1s[2][2]  Real Poles: [-77.53966525 -77.53966525] Freqs [Hz]: [6.501582989649754]
H1s[2][3]  Real Poles: [-77.40597755 -77.40597755] Freqs [Hz]: [3.5403780252243084]
H1s[3][0]  Real Poles: [-112.11250903  -25.62781213] Freqs [Hz]: []
H1s[3][1]  Real Poles: [-102.72143594  -51.18870267] Freqs [Hz]: []
H1s[3][2]  Real Poles: [-85.68839133 -85.68839133] Freqs [Hz]: [4.700268221053952]
H1s[3][3]  Real Poles: [-114.10590804  -19.87333142] Freqs [Hz]: []
model_folder = ./ucf3/
model_root = ucf3
data_path = d:/data/ucf3/ucf3.hdf5
idx_in [0, 1, 2, 3, 4, 5, 6]
idx_out [7, 8, 9, 10]
read 1500 dataframes
dt=0.012500 data_len=401 n_io=11 n_case=1500
['G', 'Ud', 'Uq', 'Vd', 'Vq', 'GVrms', 'Ctrl'] ['Vdc', 'Idc', 'Id', 'Iq'] (1500, 401, 11)
make_mimo_block iir
Idx,Vdc,Idc,Id,Iq,Vdc,Idc,Id,Iq
,RMSE,RMSE,RMSE,RMSE,MAE,MAE,MAE,MAE
Total,0.0434,0.0184,0.0195,0.0070,0.0061,0.0085,0.0085,0.0029
0,0.0434,0.0178,0.0182,0.0054,0.0056,0.0071,0.0067,0.0018
1,0.0434,0.0178,0.0182,0.0054,0.0056,0.0071,0.0067,0.0018
2,0.0434,0.0178,0.0182,0.0054,0.0056,0.0071,0.0067,0.0018
3,0.0434,0.0185,0.0191,0.0055,0.0062,0.0084,0.0084,0.0019
4,0.0434,0.0185,0.0191,0.0055,0.0062,0.0084,0.0084,0.0019
5,0.0435,0.0181,0.0183,0.0054,0.0068,0.0076,0.0070,0.0017
6,0.0435,0.0193,0.0193,0.0054,0.0066,0.0084,0.0083,0.0015
7,0.0434,0.0201,0.0199,0.0055,0.0063,0.0097,0.0092,0.0019
8,0.0434,0.0199,0.0188,0.0056,0.0062,0.0089,0.0077,0.0021
9,0.0435,0.0207,0.0201,0.0055,0.0062,0.0095,0.0096,0.0020
10,0.0435,0.0216,0.0215,0.0054,0.0061,0.0101,0.0112,0.0018
11,0.0435,0.0229,0.0219,0.0055,0.0059,0.0112,0.0117,0.0020
12,0.0435,0.0217,0.0205,0.0059,0.0061,0.0103,0.0098,0.0028
13,0.0436,0.0227,0.0227,0.0066,0.0064,0.0113,0.0128,0.0038
14,0.0435,0.0181,0.0183,0.0054,0.0068,0.0076,0.0070,0.0017
15,0.0435,0.0315,0.0261,0.0177,0.0060,0.0179,0.0141,0.0102
16,0.0435,0.0288,0.0252,0.0149,0.0058,0.0145,0.0117,0.0085
17,0.0434,0.0256,0.0242,0.0139,0.0058,0.0123,0.0113,0.0088
18,0.0434,0.0232,0.0227,0.0135,0.0058,0.0113,0.0112,0.0091
19,0.0434,0.0225,0.0226,0.0122,0.0059,0.0126,0.0125,0.0083
20,0.0434,0.0208,0.0209,0.0089,0.0062,0.0104,0.0105,0.0055
21,0.0434,0.0199,0.0199,0.0071,0.0064,0.0093,0.0092,0.0037
22,0.0434,0.0189,0.0191,0.0067,0.0064,0.0079,0.0078,0.0036
23,0.0434,0.0190,0.0197,0.0061,0.0062,0.0085,0.0090,0.0030
24,0.0434,0.0185,0.0188,0.0055,0.0056,0.0083,0.0080,0.0018
25,0.0435,0.0193,0.0193,0.0054,0.0066,0.0084,0.0083,0.0015
26,0.0434,0.0181,0.0185,0.0054,0.0054,0.0065,0.0064,0.0015
27,0.0434,0.0190,0.0196,0.0055,0.0055,0.0076,0.0080,0.0019
28,0.0434,0.0190,0.0199,0.0056,0.0058,0.0074,0.0083,0.0023
29,0.0434,0.0196,0.0205,0.0069,0.0060,0.0093,0.0097,0.0041
30,0.0434,0.0209,0.0214,0.0080,0.0058,0.0102,0.0103,0.0052
31,0.0434,0.0222,0.0231,0.0080,0.0055,0.0106,0.0111,0.0050
32,0.0434,0.0278,0.0292,0.0079,0.0061,0.0141,0.0152,0.0041
33,0.0435,0.0349,0.0355,0.0113,0.0066,0.0187,0.0195,0.0066
34,0.0435,0.0367,0.0350,0.0135,0.0065,0.0193,0.0185,0.0084
35,0.0435,0.0350,0.0322,0.0161,0.0064,0.0198,0.0189,0.0096
36,0.0434,0.0201,0.0199,0.0055,0.0063,0.0097,0.0092,0.0019
37,0.0434,0.0178,0.0182,0.0054,0.0056,0.0071,0.0067,0.0018
38,0.0434,0.0178,0.0182,0.0054,0.0056,0.0071,0.0067,0.0018
39,0.0434,0.0178,0.0182,0.0054,0.0056,0.0071,0.0067,0.0018
40,0.0434,0.0178,0.0182,0.0054,0.0056,0.0071,0.0067,0.0018
41,0.0434,0.0178,0.0182,0.0054,0.0056,0.0071,0.0067,0.0018
42,0.0434,0.0178,0.0182,0.0054,0.0056,0.0071,0.0067,0.0018
43,0.0434,0.0178,0.0182,0.0054,0.0056,0.0071,0.0067,0.0018
44,0.0434,0.0178,0.0182,0.0054,0.0056,0.0071,0.0067,0.0018
45,0.0434,0.0178,0.0182,0.0054,0.0056,0.0071,0.0067,0.0018
46,0.0434,0.0178,0.0182,0.0054,0.0056,0.0071,0.0067,0.0018
47,0.0434,0.0199,0.0188,0.0056,0.0062,0.0089,0.0077,0.0021
48,0.0434,0.0178,0.0182,0.0054,0.0056,0.0071,0.0067,0.0018
49,0.0434,0.0178,0.0182,0.0054,0.0056,0.0071,0.0067,0.0018
50,0.0434,0.0178,0.0182,0.0054,0.0056,0.0071,0.0067,0.0018
51,0.0434,0.0178,0.0182,0.0054,0.0056,0.0071,0.0067,0.0018
52,0.0434,0.0178,0.0182,0.0054,0.0056,0.0071,0.0067,0.0018
53,0.0434,0.0178,0.0182,0.0054,0.0056,0.0071,0.0067,0.0018
54,0.0434,0.0178,0.0182,0.0054,0.0056,0.0071,0.0067,0.0018
55,0.0434,0.0178,0.0182,0.0054,0.0056,0.0071,0.0067,0.0018
56,0.0434,0.0178,0.0182,0.0054,0.0056,0.0071,0.0067,0.0018
57,0.0434,0.0178,0.0182,0.0054,0.0056,0.0071,0.0067,0.0018
58,0.0435,0.0207,0.0201,0.0055,0.0062,0.0095,0.0096,0.0020
59,0.0434,0.0178,0.0182,0.0054,0.0056,0.0071,0.0067,0.0018
60,0.0434,0.0178,0.0182,0.0054,0.0056,0.0071,0.0067,0.0018
61,0.0434,0.0178,0.0182,0.0054,0.0056,0.0071,0.0067,0.0018
62,0.0434,0.0178,0.0182,0.0054,0.0056,0.0071,0.0067,0.0018
63,0.0434,0.0178,0.0182,0.0054,0.0056,0.0071,0.0067,0.0018
64,0.0434,0.0178,0.0182,0.0054,0.0056,0.0071,0.0067,0.0018
65,0.0434,0.0178,0.0182,0.0054,0.0056,0.0071,0.0067,0.0018
66,0.0434,0.0178,0.0182,0.0054,0.0056,0.0071,0.0067,0.0018
67,0.0434,0.0178,0.0182,0.0054,0.0056,0.0071,0.0067,0.0018
68,0.0434,0.0178,0.0182,0.0054,0.0056,0.0071,0.0067,0.0018
69,0.0435,0.0216,0.0215,0.0054,0.0061,0.0101,0.0112,0.0018
70,0.0434,0.0178,0.0182,0.0054,0.0056,0.0071,0.0067,0.0018
71,0.0434,0.0178,0.0182,0.0054,0.0056,0.0071,0.0067,0.0018
72,0.0434,0.0178,0.0182,0.0054,0.0056,0.0071,0.0067,0.0018
73,0.0434,0.0178,0.0182,0.0054,0.0056,0.0071,0.0067,0.0018
74,0.0434,0.0178,0.0182,0.0054,0.0056,0.0071,0.0067,0.0018
75,0.0436,0.0166,0.0235,0.0070,0.0067,0.0065,0.0132,0.0036
76,0.0435,0.0168,0.0215,0.0065,0.0063,0.0064,0.0112,0.0034
77,0.0435,0.0168,0.0206,0.0062,0.0063,0.0067,0.0103,0.0031
78,0.0435,0.0171,0.0196,0.0059,0.0062,0.0070,0.0091,0.0029
79,0.0435,0.0207,0.0201,0.0055,0.0062,0.0095,0.0096,0.0020
80,0.0435,0.0229,0.0219,0.0055,0.0059,0.0112,0.0117,0.0020
81,0.0434,0.0171,0.0187,0.0056,0.0060,0.0064,0.0077,0.0022
82,0.0434,0.0173,0.0182,0.0055,0.0060,0.0072,0.0065,0.0019
83,0.0434,0.0176,0.0185,0.0054,0.0058,0.0073,0.0071,0.0016
84,0.0434,0.0178,0.0186,0.0054,0.0056,0.0072,0.0073,0.0016
85,0.0434,0.0180,0.0187,0.0054,0.0055,0.0075,0.0075,0.0016
86,0.0434,0.0185,0.0191,0.0055,0.0062,0.0084,0.0084,0.0019
87,0.0435,0.0181,0.0183,0.0054,0.0068,0.0076,0.0070,0.0017
88,0.0435,0.0193,0.0193,0.0054,0.0066,0.0084,0.0083,0.0015
89,0.0434,0.0201,0.0199,0.0055,0.0063,0.0097,0.0092,0.0019
90,0.0434,0.0199,0.0188,0.0056,0.0062,0.0089,0.0077,0.0021
91,0.0435,0.0217,0.0205,0.0059,0.0061,0.0103,0.0098,0.0028
92,0.0435,0.0207,0.0201,0.0055,0.0062,0.0095,0.0096,0.0020
93,0.0435,0.0216,0.0215,0.0054,0.0061,0.0101,0.0112,0.0018
94,0.0435,0.0229,0.0219,0.0055,0.0059,0.0112,0.0117,0.0020
95,0.0435,0.0217,0.0205,0.0059,0.0061,0.0103,0.0098,0.0028
96,0.0436,0.0227,0.0227,0.0066,0.0064,0.0113,0.0128,0.0038
97,0.0435,0.0315,0.0261,0.0177,0.0060,0.0179,0.0141,0.0102
98,0.0435,0.0288,0.0252,0.0149,0.0058,0.0145,0.0117,0.0085
99,0.0434,0.0256,0.0242,0.0139,0.0058,0.0123,0.0113,0.0088
100,0.0434,0.0172,0.0181,0.0054,0.0056,0.0068,0.0067,0.0015
101,0.0434,0.0172,0.0181,0.0054,0.0056,0.0068,0.0067,0.0015
102,0.0434,0.0172,0.0181,0.0054,0.0056,0.0068,0.0067,0.0015
103,0.0434,0.0172,0.0179,0.0054,0.0062,0.0072,0.0067,0.0016
104,0.0434,0.0172,0.0179,0.0054,0.0062,0.0072,0.0067,0.0016
105,0.0435,0.0172,0.0183,0.0054,0.0068,0.0070,0.0073,0.0015
106,0.0435,0.0183,0.0193,0.0054,0.0066,0.0080,0.0088,0.0017
107,0.0434,0.0193,0.0198,0.0056,0.0062,0.0094,0.0093,0.0021
108,0.0434,0.0184,0.0182,0.0057,0.0060,0.0077,0.0066,0.0023
109,0.0435,0.0195,0.0194,0.0057,0.0060,0.0092,0.0090,0.0023
110,0.0435,0.0198,0.0200,0.0055,0.0059,0.0091,0.0095,0.0021
111,0.0435,0.0212,0.0210,0.0055,0.0058,0.0108,0.0108,0.0020
112,0.0435,0.0201,0.0198,0.0056,0.0060,0.0098,0.0096,0.0022
113,0.0436,0.0213,0.0223,0.0060,0.0063,0.0115,0.0122,0.0030
114,0.0435,0.0172,0.0183,0.0054,0.0068,0.0070,0.0073,0.0015
115,0.0435,0.0261,0.0241,0.0150,0.0060,0.0138,0.0132,0.0091
116,0.0434,0.0252,0.0233,0.0128,0.0058,0.0128,0.0109,0.0076
117,0.0434,0.0228,0.0224,0.0125,0.0057,0.0111,0.0104,0.0081
118,0.0434,0.0212,0.0214,0.0123,0.0057,0.0103,0.0102,0.0084
119,0.0434,0.0216,0.0222,0.0117,0.0058,0.0127,0.0126,0.0081
120,0.0434,0.0204,0.0213,0.0088,0.0059,0.0108,0.0112,0.0055
121,0.0434,0.0184,0.0191,0.0067,0.0061,0.0083,0.0085,0.0036
122,0.0434,0.0178,0.0186,0.0065,0.0062,0.0069,0.0066,0.0036
123,0.0434,0.0181,0.0193,0.0062,0.0059,0.0082,0.0086,0.0032
124,0.0434,0.0178,0.0187,0.0054,0.0055,0.0080,0.0080,0.0017
125,0.0435,0.0183,0.0193,0.0054,0.0066,0.0080,0.0088,0.0017
126,0.0434,0.0174,0.0183,0.0054,0.0054,0.0064,0.0065,0.0016
127,0.0434,0.0177,0.0188,0.0055,0.0053,0.0068,0.0073,0.0019
128,0.0434,0.0175,0.0187,0.0056,0.0056,0.0067,0.0072,0.0022
129,0.0434,0.0182,0.0194,0.0067,0.0057,0.0082,0.0087,0.0039
130,0.0434,0.0196,0.0203,0.0083,0.0055,0.0100,0.0097,0.0055
131,0.0434,0.0204,0.0213,0.0083,0.0054,0.0101,0.0102,0.0053
132,0.0434,0.0251,0.0268,0.0076,0.0062,0.0133,0.0145,0.0039
133,0.0435,0.0311,0.0322,0.0101,0.0066,0.0176,0.0184,0.0059
134,0.0435,0.0320,0.0313,0.0117,0.0064,0.0176,0.0172,0.0071
135,0.0434,0.0306,0.0289,0.0149,0.0062,0.0180,0.0171,0.0088
136,0.0434,0.0193,0.0198,0.0056,0.0062,0.0094,0.0093,0.0021
137,0.0434,0.0172,0.0181,0.0054,0.0056,0.0068,0.0067,0.0015
138,0.0434,0.0172,0.0181,0.0054,0.0056,0.0068,0.0067,0.0015
139,0.0434,0.0172,0.0181,0.0054,0.0056,0.0068,0.0067,0.0015
140,0.0434,0.0172,0.0181,0.0054,0.0056,0.0068,0.0067,0.0015
141,0.0434,0.0172,0.0181,0.0054,0.0056,0.0068,0.0067,0.0015
142,0.0434,0.0172,0.0181,0.0054,0.0056,0.0068,0.0067,0.0015
143,0.0434,0.0172,0.0181,0.0054,0.0056,0.0068,0.0067,0.0015
144,0.0434,0.0172,0.0181,0.0054,0.0056,0.0068,0.0067,0.0015
145,0.0434,0.0172,0.0181,0.0054,0.0056,0.0068,0.0067,0.0015
146,0.0434,0.0172,0.0181,0.0054,0.0056,0.0068,0.0067,0.0015
147,0.0434,0.0184,0.0182,0.0057,0.0060,0.0077,0.0066,0.0023
148,0.0434,0.0172,0.0181,0.0054,0.0056,0.0068,0.0067,0.0015
149,0.0434,0.0172,0.0181,0.0054,0.0056,0.0068,0.0067,0.0015
150,0.0434,0.0172,0.0181,0.0054,0.0056,0.0068,0.0067,0.0015
151,0.0434,0.0172,0.0181,0.0054,0.0056,0.0068,0.0067,0.0015
152,0.0434,0.0172,0.0181,0.0054,0.0056,0.0068,0.0067,0.0015
153,0.0434,0.0172,0.0181,0.0054,0.0056,0.0068,0.0067,0.0015
154,0.0434,0.0172,0.0181,0.0054,0.0056,0.0068,0.0067,0.0015
155,0.0434,0.0172,0.0181,0.0054,0.0056,0.0068,0.0067,0.0015
156,0.0434,0.0172,0.0181,0.0054,0.0056,0.0068,0.0067,0.0015
157,0.0434,0.0172,0.0181,0.0054,0.0056,0.0068,0.0067,0.0015
158,0.0435,0.0195,0.0194,0.0057,0.0060,0.0092,0.0090,0.0023
159,0.0434,0.0172,0.0181,0.0054,0.0056,0.0068,0.0067,0.0015
160,0.0434,0.0172,0.0181,0.0054,0.0056,0.0068,0.0067,0.0015
161,0.0434,0.0172,0.0181,0.0054,0.0056,0.0068,0.0067,0.0015
162,0.0434,0.0172,0.0181,0.0054,0.0056,0.0068,0.0067,0.0015
163,0.0434,0.0172,0.0181,0.0054,0.0056,0.0068,0.0067,0.0015
164,0.0434,0.0172,0.0181,0.0054,0.0056,0.0068,0.0067,0.0015
165,0.0434,0.0172,0.0181,0.0054,0.0056,0.0068,0.0067,0.0015
166,0.0434,0.0172,0.0181,0.0054,0.0056,0.0068,0.0067,0.0015
167,0.0434,0.0172,0.0181,0.0054,0.0056,0.0068,0.0067,0.0015
168,0.0434,0.0172,0.0181,0.0054,0.0056,0.0068,0.0067,0.0015
169,0.0435,0.0198,0.0200,0.0055,0.0059,0.0091,0.0095,0.0021
170,0.0434,0.0172,0.0181,0.0054,0.0056,0.0068,0.0067,0.0015
171,0.0434,0.0172,0.0181,0.0054,0.0056,0.0068,0.0067,0.0015
172,0.0434,0.0172,0.0181,0.0054,0.0056,0.0068,0.0067,0.0015
173,0.0434,0.0172,0.0181,0.0054,0.0056,0.0068,0.0067,0.0015
174,0.0434,0.0172,0.0181,0.0054,0.0056,0.0068,0.0067,0.0015
175,0.0436,0.0163,0.0211,0.0062,0.0068,0.0062,0.0110,0.0030
176,0.0435,0.0164,0.0203,0.0059,0.0063,0.0063,0.0101,0.0028
177,0.0435,0.0164,0.0190,0.0058,0.0060,0.0065,0.0084,0.0026
178,0.0434,0.0166,0.0185,0.0057,0.0059,0.0068,0.0074,0.0024
179,0.0435,0.0195,0.0194,0.0057,0.0060,0.0092,0.0090,0.0023
180,0.0435,0.0212,0.0210,0.0055,0.0058,0.0108,0.0108,0.0020
181,0.0434,0.0166,0.0181,0.0055,0.0057,0.0064,0.0066,0.0019
182,0.0434,0.0168,0.0180,0.0055,0.0057,0.0071,0.0063,0.0019
183,0.0434,0.0166,0.0181,0.0054,0.0056,0.0065,0.0068,0.0017
184,0.0434,0.0170,0.0181,0.0054,0.0056,0.0068,0.0067,0.0015
185,0.0434,0.0173,0.0184,0.0054,0.0055,0.0073,0.0072,0.0014
186,0.0434,0.0172,0.0179,0.0054,0.0062,0.0072,0.0067,0.0016
187,0.0435,0.0172,0.0183,0.0054,0.0068,0.0070,0.0073,0.0015
188,0.0435,0.0183,0.0193,0.0054,0.0066,0.0080,0.0088,0.0017
189,0.0434,0.0193,0.0198,0.0056,0.0062,0.0094,0.0093,0.0021
190,0.0434,0.0184,0.0182,0.0057,0.0060,0.0077,0.0066,0.0023
191,0.0435,0.0201,0.0198,0.0056,0.0060,0.0098,0.0096,0.0022
192,0.0435,0.0195,0.0194,0.0057,0.0060,0.0092,0.0090,0.0023
193,0.0435,0.0198,0.0200,0.0055,0.0059,0.0091,0.0095,0.0021
194,0.0435,0.0212,0.0210,0.0055,0.0058,0.0108,0.0108,0.0020
195,0.0435,0.0201,0.0198,0.0056,0.0060,0.0098,0.0096,0.0022
196,0.0436,0.0213,0.0223,0.0060,0.0063,0.0115,0.0122,0.0030
197,0.0435,0.0261,0.0241,0.0150,0.0060,0.0138,0.0132,0.0091
198,0.0434,0.0252,0.0233,0.0128,0.0058,0.0128,0.0109,0.0076
199,0.0434,0.0228,0.0224,0.0125,0.0057,0.0111,0.0104,0.0081
200,0.0434,0.0161,0.0178,0.0053,0.0060,0.0065,0.0066,0.0013
201,0.0434,0.0161,0.0178,0.0053,0.0060,0.0065,0.0066,0.0013
202,0.0434,0.0161,0.0178,0.0053,0.0060,0.0065,0.0066,0.0013
203,0.0435,0.0161,0.0176,0.0054,0.0066,0.0067,0.0061,0.0014
204,0.0435,0.0161,0.0176,0.0054,0.0066,0.0067,0.0061,0.0014
205,0.0435,0.0163,0.0179,0.0054,0.0073,0.0072,0.0067,0.0015
206,0.0435,0.0167,0.0184,0.0054,0.0069,0.0074,0.0078,0.0018
207,0.0434,0.0180,0.0206,0.0056,0.0060,0.0093,0.0112,0.0020
208,0.0434,0.0166,0.0177,0.0057,0.0058,0.0070,0.0061,0.0024
209,0.0434,0.0174,0.0187,0.0057,0.0058,0.0081,0.0081,0.0024
210,0.0435,0.0170,0.0185,0.0057,0.0058,0.0077,0.0078,0.0024
211,0.0435,0.0185,0.0199,0.0057,0.0057,0.0100,0.0101,0.0026
212,0.0435,0.0183,0.0194,0.0057,0.0058,0.0094,0.0089,0.0025
213,0.0435,0.0206,0.0217,0.0058,0.0060,0.0122,0.0118,0.0025
214,0.0435,0.0163,0.0179,0.0054,0.0073,0.0072,0.0067,0.0015
215,0.0435,0.0220,0.0231,0.0124,0.0060,0.0130,0.0136,0.0081
216,0.0434,0.0186,0.0195,0.0099,0.0057,0.0090,0.0084,0.0064
217,0.0434,0.0187,0.0197,0.0108,0.0056,0.0093,0.0087,0.0073
218,0.0434,0.0197,0.0206,0.0119,0.0056,0.0114,0.0106,0.0083
219,0.0434,0.0197,0.0213,0.0107,0.0055,0.0118,0.0119,0.0074
220,0.0434,0.0187,0.0207,0.0081,0.0056,0.0102,0.0108,0.0051
221,0.0434,0.0168,0.0184,0.0063,0.0058,0.0073,0.0076,0.0033
222,0.0434,0.0167,0.0184,0.0064,0.0058,0.0064,0.0067,0.0034
223,0.0434,0.0170,0.0190,0.0063,0.0055,0.0074,0.0084,0.0033
224,0.0434,0.0167,0.0186,0.0054,0.0057,0.0075,0.0080,0.0017
225,0.0435,0.0167,0.0184,0.0054,0.0069,0.0074,0.0078,0.0018
226,0.0434,0.0159,0.0177,0.0054,0.0058,0.0059,0.0063,0.0017
227,0.0434,0.0163,0.0182,0.0055,0.0054,0.0065,0.0071,0.0020
228,0.0434,0.0161,0.0180,0.0056,0.0052,0.0060,0.0064,0.0022
229,0.0434,0.0169,0.0186,0.0068,0.0053,0.0081,0.0083,0.0041
230,0.0434,0.0180,0.0191,0.0084,0.0053,0.0097,0.0090,0.0056
231,0.0434,0.0178,0.0190,0.0085,0.0057,0.0089,0.0085,0.0055
232,0.0434,0.0190,0.0213,0.0070,0.0064,0.0099,0.0111,0.0037
233,0.0435,0.0230,0.0251,0.0080,0.0066,0.0135,0.0146,0.0043
234,0.0434,0.0223,0.0234,0.0089,0.0062,0.0124,0.0125,0.0051
235,0.0434,0.0251,0.0254,0.0160,0.0057,0.0155,0.0149,0.0105
236,0.0434,0.0180,0.0206,0.0056,0.0060,0.0093,0.0112,0.0020
237,0.0434,0.0161,0.0178,0.0053,0.0060,0.0065,0.0066,0.0013
238,0.0434,0.0161,0.0178,0.0053,0.0060,0.0065,0.0066,0.0013
239,0.0434,0.0161,0.0178,0.0053,0.0060,0.0065,0.0066,0.0013
240,0.0434,0.0161,0.0178,0.0053,0.0060,0.0065,0.0066,0.0013
241,0.0434,0.0161,0.0178,0.0053,0.0060,0.0065,0.0066,0.0013
242,0.0434,0.0161,0.0178,0.0053,0.0060,0.0065,0.0066,0.0013
243,0.0434,0.0161,0.0178,0.0053,0.0060,0.0065,0.0066,0.0013
244,0.0434,0.0161,0.0178,0.0053,0.0060,0.0065,0.0066,0.0013
245,0.0434,0.0161,0.0178,0.0053,0.0060,0.0065,0.0066,0.0013
246,0.0434,0.0161,0.0178,0.0053,0.0060,0.0065,0.0066,0.0013
247,0.0434,0.0166,0.0177,0.0057,0.0058,0.0070,0.0061,0.0024
248,0.0434,0.0161,0.0178,0.0053,0.0060,0.0065,0.0066,0.0013
249,0.0434,0.0161,0.0178,0.0053,0.0060,0.0065,0.0066,0.0013
250,0.0434,0.0161,0.0178,0.0053,0.0060,0.0065,0.0066,0.0013
251,0.0434,0.0161,0.0178,0.0053,0.0060,0.0065,0.0066,0.0013
252,0.0434,0.0161,0.0178,0.0053,0.0060,0.0065,0.0066,0.0013
253,0.0434,0.0161,0.0178,0.0053,0.0060,0.0065,0.0066,0.0013
254,0.0434,0.0161,0.0178,0.0053,0.0060,0.0065,0.0066,0.0013
255,0.0434,0.0161,0.0178,0.0053,0.0060,0.0065,0.0066,0.0013
256,0.0434,0.0161,0.0178,0.0053,0.0060,0.0065,0.0066,0.0013
257,0.0434,0.0161,0.0178,0.0053,0.0060,0.0065,0.0066,0.0013
258,0.0434,0.0174,0.0187,0.0057,0.0058,0.0081,0.0081,0.0024
259,0.0434,0.0161,0.0178,0.0053,0.0060,0.0065,0.0066,0.0013
260,0.0434,0.0161,0.0178,0.0053,0.0060,0.0065,0.0066,0.0013
261,0.0434,0.0161,0.0178,0.0053,0.0060,0.0065,0.0066,0.0013
262,0.0434,0.0161,0.0178,0.0053,0.0060,0.0065,0.0066,0.0013
263,0.0434,0.0161,0.0178,0.0053,0.0060,0.0065,0.0066,0.0013
264,0.0434,0.0161,0.0178,0.0053,0.0060,0.0065,0.0066,0.0013
265,0.0434,0.0161,0.0178,0.0053,0.0060,0.0065,0.0066,0.0013
266,0.0434,0.0161,0.0178,0.0053,0.0060,0.0065,0.0066,0.0013
267,0.0434,0.0161,0.0178,0.0053,0.0060,0.0065,0.0066,0.0013
268,0.0434,0.0161,0.0178,0.0053,0.0060,0.0065,0.0066,0.0013
269,0.0435,0.0170,0.0185,0.0057,0.0058,0.0077,0.0078,0.0024
270,0.0434,0.0161,0.0178,0.0053,0.0060,0.0065,0.0066,0.0013
271,0.0434,0.0161,0.0178,0.0053,0.0060,0.0065,0.0066,0.0013
272,0.0434,0.0161,0.0178,0.0053,0.0060,0.0065,0.0066,0.0013
273,0.0434,0.0161,0.0178,0.0053,0.0060,0.0065,0.0066,0.0013
274,0.0434,0.0161,0.0178,0.0053,0.0060,0.0065,0.0066,0.0013
275,0.0436,0.0157,0.0180,0.0055,0.0071,0.0059,0.0067,0.0019
276,0.0435,0.0159,0.0178,0.0055,0.0068,0.0062,0.0063,0.0018
277,0.0435,0.0160,0.0180,0.0055,0.0066,0.0065,0.0068,0.0018
278,0.0435,0.0158,0.0178,0.0056,0.0065,0.0062,0.0065,0.0021
279,0.0434,0.0174,0.0187,0.0057,0.0058,0.0081,0.0081,0.0024
280,0.0435,0.0185,0.0199,0.0057,0.0057,0.0100,0.0101,0.0026
281,0.0434,0.0160,0.0177,0.0056,0.0063,0.0064,0.0064,0.0022
282,0.0434,0.0158,0.0176,0.0055,0.0063,0.0061,0.0062,0.0021
283,0.0434,0.0160,0.0178,0.0054,0.0062,0.0064,0.0065,0.0019
284,0.0434,0.0160,0.0178,0.0054,0.0062,0.0064,0.0065,0.0016
285,0.0434,0.0162,0.0180,0.0054,0.0060,0.0067,0.0068,0.0014
286,0.0435,0.0161,0.0176,0.0054,0.0066,0.0067,0.0061,0.0014
287,0.0435,0.0163,0.0179,0.0054,0.0073,0.0072,0.0067,0.0015
288,0.0435,0.0167,0.0184,0.0054,0.0069,0.0074,0.0078,0.0018
289,0.0434,0.0180,0.0206,0.0056,0.0060,0.0093,0.0112,0.0020
290,0.0434,0.0166,0.0177,0.0057,0.0058,0.0070,0.0061,0.0024
291,0.0435,0.0183,0.0194,0.0057,0.0058,0.0094,0.0089,0.0025
292,0.0434,0.0174,0.0187,0.0057,0.0058,0.0081,0.0081,0.0024
293,0.0435,0.0170,0.0185,0.0057,0.0058,0.0077,0.0078,0.0024
294,0.0435,0.0185,0.0199,0.0057,0.0057,0.0100,0.0101,0.0026
295,0.0435,0.0183,0.0194,0.0057,0.0058,0.0094,0.0089,0.0025
296,0.0435,0.0206,0.0217,0.0058,0.0060,0.0122,0.0118,0.0025
297,0.0435,0.0220,0.0231,0.0124,0.0060,0.0130,0.0136,0.0081
298,0.0434,0.0186,0.0195,0.0099,0.0057,0.0090,0.0084,0.0064
299,0.0434,0.0187,0.0197,0.0108,0.0056,0.0093,0.0087,0.0073
300,0.0434,0.0158,0.0177,0.0053,0.0063,0.0067,0.0064,0.0013
301,0.0434,0.0158,0.0177,0.0053,0.0063,0.0067,0.0064,0.0013
302,0.0434,0.0158,0.0177,0.0053,0.0063,0.0067,0.0064,0.0013
303,0.0435,0.0158,0.0176,0.0054,0.0069,0.0066,0.0062,0.0014
304,0.0435,0.0158,0.0176,0.0054,0.0069,0.0066,0.0062,0.0014
305,0.0436,0.0158,0.0177,0.0054,0.0077,0.0066,0.0063,0.0014
306,0.0435,0.0163,0.0180,0.0054,0.0070,0.0075,0.0070,0.0017
307,0.0434,0.0171,0.0195,0.0054,0.0061,0.0083,0.0095,0.0018
308,0.0434,0.0157,0.0174,0.0055,0.0056,0.0062,0.0058,0.0020
309,0.0434,0.0165,0.0185,0.0056,0.0057,0.0078,0.0080,0.0021
310,0.0435,0.0171,0.0191,0.0057,0.0057,0.0085,0.0089,0.0024
311,0.0435,0.0179,0.0198,0.0058,0.0056,0.0096,0.0098,0.0026
312,0.0435,0.0182,0.0197,0.0059,0.0056,0.0102,0.0099,0.0028
313,0.0435,0.0192,0.0199,0.0060,0.0058,0.0114,0.0100,0.0030
314,0.0436,0.0158,0.0177,0.0054,0.0077,0.0066,0.0063,0.0014
315,0.0435,0.0254,0.0257,0.0146,0.0061,0.0167,0.0163,0.0100
316,0.0434,0.0173,0.0185,0.0105,0.0057,0.0091,0.0078,0.0071
317,0.0434,0.0175,0.0187,0.0113,0.0056,0.0088,0.0078,0.0078
318,0.0434,0.0203,0.0212,0.0127,0.0056,0.0123,0.0115,0.0091
319,0.0434,0.0206,0.0226,0.0113,0.0054,0.0127,0.0131,0.0079
320,0.0434,0.0171,0.0200,0.0077,0.0054,0.0087,0.0100,0.0048
321,0.0434,0.0159,0.0179,0.0060,0.0060,0.0061,0.0066,0.0030
322,0.0434,0.0164,0.0184,0.0065,0.0060,0.0069,0.0073,0.0036
323,0.0434,0.0166,0.0185,0.0064,0.0058,0.0070,0.0071,0.0035
324,0.0434,0.0163,0.0185,0.0054,0.0060,0.0074,0.0080,0.0017
325,0.0435,0.0163,0.0180,0.0054,0.0070,0.0075,0.0070,0.0017
326,0.0434,0.0153,0.0173,0.0054,0.0060,0.0053,0.0052,0.0016
327,0.0434,0.0157,0.0179,0.0054,0.0057,0.0063,0.0069,0.0016
328,0.0434,0.0156,0.0178,0.0056,0.0055,0.0061,0.0067,0.0023
329,0.0434,0.0171,0.0191,0.0071,0.0054,0.0088,0.0092,0.0044
330,0.0434,0.0192,0.0208,0.0090,0.0054,0.0111,0.0110,0.0062
331,0.0434,0.0190,0.0201,0.0096,0.0058,0.0110,0.0104,0.0065
332,0.0434,0.0169,0.0186,0.0080,0.0063,0.0082,0.0078,0.0048
333,0.0434,0.0178,0.0201,0.0077,0.0065,0.0086,0.0096,0.0043
334,0.0434,0.0184,0.0199,0.0094,0.0060,0.0090,0.0087,0.0060
335,0.0434,0.0286,0.0283,0.0198,0.0057,0.0192,0.0182,0.0137
336,0.0434,0.0171,0.0195,0.0054,0.0061,0.0083,0.0095,0.0018
337,0.0434,0.0158,0.0177,0.0053,0.0063,0.0067,0.0064,0.0013
338,0.0434,0.0158,0.0177,0.0053,0.0063,0.0067,0.0064,0.0013
339,0.0434,0.0158,0.0177,0.0053,0.0063,0.0067,0.0064,0.0013
340,0.0434,0.0158,0.0177,0.0053,0.0063,0.0067,0.0064,0.0013
341,0.0434,0.0158,0.0177,0.0053,0.0063,0.0067,0.0064,0.0013
342,0.0434,0.0158,0.0177,0.0053,0.0063,0.0067,0.0064,0.0013
343,0.0434,0.0158,0.0177,0.0053,0.0063,0.0067,0.0064,0.0013
344,0.0434,0.0158,0.0177,0.0053,0.0063,0.0067,0.0064,0.0013
345,0.0434,0.0158,0.0177,0.0053,0.0063,0.0067,0.0064,0.0013
346,0.0434,0.0158,0.0177,0.0053,0.0063,0.0067,0.0064,0.0013
347,0.0434,0.0157,0.0174,0.0055,0.0056,0.0062,0.0058,0.0020
348,0.0434,0.0158,0.0177,0.0053,0.0063,0.0067,0.0064,0.0013
349,0.0434,0.0158,0.0177,0.0053,0.0063,0.0067,0.0064,0.0013
350,0.0434,0.0158,0.0177,0.0053,0.0063,0.0067,0.0064,0.0013
351,0.0434,0.0158,0.0177,0.0053,0.0063,0.0067,0.0064,0.0013
352,0.0434,0.0158,0.0177,0.0053,0.0063,0.0067,0.0064,0.0013
353,0.0434,0.0158,0.0177,0.0053,0.0063,0.0067,0.0064,0.0013
354,0.0434,0.0158,0.0177,0.0053,0.0063,0.0067,0.0064,0.0013
355,0.0434,0.0158,0.0177,0.0053,0.0063,0.0067,0.0064,0.0013
356,0.0434,0.0158,0.0177,0.0053,0.0063,0.0067,0.0064,0.0013
357,0.0434,0.0158,0.0177,0.0053,0.0063,0.0067,0.0064,0.0013
358,0.0434,0.0165,0.0185,0.0056,0.0057,0.0078,0.0080,0.0021
359,0.0434,0.0158,0.0177,0.0053,0.0063,0.0067,0.0064,0.0013
360,0.0434,0.0158,0.0177,0.0053,0.0063,0.0067,0.0064,0.0013
361,0.0434,0.0158,0.0177,0.0053,0.0063,0.0067,0.0064,0.0013
362,0.0434,0.0158,0.0177,0.0053,0.0063,0.0067,0.0064,0.0013
363,0.0434,0.0158,0.0177,0.0053,0.0063,0.0067,0.0064,0.0013
364,0.0434,0.0158,0.0177,0.0053,0.0063,0.0067,0.0064,0.0013
365,0.0434,0.0158,0.0177,0.0053,0.0063,0.0067,0.0064,0.0013
366,0.0434,0.0158,0.0177,0.0053,0.0063,0.0067,0.0064,0.0013
367,0.0434,0.0158,0.0177,0.0053,0.0063,0.0067,0.0064,0.0013
368,0.0434,0.0158,0.0177,0.0053,0.0063,0.0067,0.0064,0.0013
369,0.0435,0.0171,0.0191,0.0057,0.0057,0.0085,0.0089,0.0024
370,0.0434,0.0158,0.0177,0.0053,0.0063,0.0067,0.0064,0.0013
371,0.0434,0.0158,0.0177,0.0053,0.0063,0.0067,0.0064,0.0013
372,0.0434,0.0158,0.0177,0.0053,0.0063,0.0067,0.0064,0.0013
373,0.0434,0.0158,0.0177,0.0053,0.0063,0.0067,0.0064,0.0013
374,0.0434,0.0158,0.0177,0.0053,0.0063,0.0067,0.0064,0.0013
375,0.0436,0.0158,0.0194,0.0054,0.0075,0.0065,0.0092,0.0016
376,0.0436,0.0157,0.0184,0.0055,0.0072,0.0059,0.0078,0.0019
377,0.0435,0.0159,0.0188,0.0056,0.0070,0.0066,0.0085,0.0021
378,0.0435,0.0155,0.0179,0.0056,0.0069,0.0059,0.0070,0.0023
379,0.0434,0.0165,0.0185,0.0056,0.0057,0.0078,0.0080,0.0021
380,0.0435,0.0179,0.0198,0.0058,0.0056,0.0096,0.0098,0.0026
381,0.0435,0.0156,0.0180,0.0056,0.0068,0.0060,0.0071,0.0022
382,0.0435,0.0158,0.0182,0.0055,0.0068,0.0064,0.0073,0.0021
383,0.0435,0.0161,0.0186,0.0054,0.0067,0.0075,0.0085,0.0018
384,0.0435,0.0160,0.0181,0.0054,0.0065,0.0070,0.0076,0.0016
385,0.0434,0.0160,0.0181,0.0053,0.0063,0.0071,0.0073,0.0013
386,0.0435,0.0158,0.0176,0.0054,0.0069,0.0066,0.0062,0.0014
387,0.0436,0.0158,0.0177,0.0054,0.0077,0.0066,0.0063,0.0014
388,0.0435,0.0163,0.0180,0.0054,0.0070,0.0075,0.0070,0.0017
389,0.0434,0.0171,0.0195,0.0054,0.0061,0.0083,0.0095,0.0018
390,0.0434,0.0157,0.0174,0.0055,0.0056,0.0062,0.0058,0.0020
391,0.0435,0.0182,0.0197,0.0059,0.0056,0.0102,0.0099,0.0028
392,0.0434,0.0165,0.0185,0.0056,0.0057,0.0078,0.0080,0.0021
393,0.0435,0.0171,0.0191,0.0057,0.0057,0.0085,0.0089,0.0024
394,0.0435,0.0179,0.0198,0.0058,0.0056,0.0096,0.0098,0.0026
395,0.0435,0.0182,0.0197,0.0059,0.0056,0.0102,0.0099,0.0028
396,0.0435,0.0192,0.0199,0.0060,0.0058,0.0114,0.0100,0.0030
397,0.0435,0.0254,0.0257,0.0146,0.0061,0.0167,0.0163,0.0100
398,0.0434,0.0173,0.0185,0.0105,0.0057,0.0091,0.0078,0.0071
399,0.0434,0.0175,0.0187,0.0113,0.0056,0.0088,0.0078,0.0078
400,0.0434,0.0158,0.0177,0.0054,0.0063,0.0067,0.0066,0.0014
401,0.0434,0.0158,0.0177,0.0054,0.0063,0.0067,0.0066,0.0014
402,0.0434,0.0158,0.0177,0.0054,0.0063,0.0067,0.0066,0.0014
403,0.0435,0.0155,0.0175,0.0054,0.0071,0.0060,0.0062,0.0015
404,0.0435,0.0155,0.0175,0.0054,0.0071,0.0060,0.0062,0.0015
405,0.0436,0.0161,0.0178,0.0054,0.0078,0.0072,0.0067,0.0014
406,0.0435,0.0168,0.0182,0.0054,0.0071,0.0086,0.0076,0.0015
407,0.0434,0.0169,0.0190,0.0054,0.0062,0.0078,0.0083,0.0016
408,0.0434,0.0154,0.0174,0.0054,0.0056,0.0056,0.0057,0.0018
409,0.0434,0.0176,0.0196,0.0055,0.0057,0.0093,0.0099,0.0020
410,0.0435,0.0169,0.0191,0.0056,0.0057,0.0081,0.0088,0.0022
411,0.0435,0.0178,0.0199,0.0057,0.0056,0.0098,0.0100,0.0026
412,0.0435,0.0176,0.0190,0.0059,0.0055,0.0096,0.0089,0.0029
413,0.0435,0.0194,0.0200,0.0061,0.0056,0.0118,0.0104,0.0032
414,0.0436,0.0161,0.0178,0.0054,0.0078,0.0072,0.0067,0.0014
415,0.0435,0.0285,0.0280,0.0166,0.0061,0.0192,0.0183,0.0115
416,0.0434,0.0184,0.0192,0.0122,0.0058,0.0105,0.0090,0.0085
417,0.0434,0.0188,0.0192,0.0127,0.0056,0.0109,0.0090,0.0090
418,0.0434,0.0216,0.0224,0.0136,0.0056,0.0136,0.0129,0.0098
419,0.0434,0.0218,0.0239,0.0119,0.0053,0.0139,0.0145,0.0084
420,0.0434,0.0168,0.0197,0.0076,0.0055,0.0083,0.0098,0.0048
421,0.0434,0.0157,0.0180,0.0061,0.0062,0.0060,0.0070,0.0031
422,0.0434,0.0161,0.0184,0.0065,0.0062,0.0065,0.0073,0.0036
423,0.0434,0.0165,0.0185,0.0063,0.0059,0.0068,0.0071,0.0035
424,0.0434,0.0162,0.0182,0.0054,0.0061,0.0069,0.0071,0.0017
425,0.0435,0.0168,0.0182,0.0054,0.0071,0.0086,0.0076,0.0015
426,0.0434,0.0160,0.0180,0.0054,0.0061,0.0071,0.0073,0.0014
427,0.0434,0.0156,0.0179,0.0054,0.0058,0.0061,0.0069,0.0015
428,0.0434,0.0157,0.0181,0.0057,0.0056,0.0064,0.0074,0.0025
429,0.0434,0.0176,0.0198,0.0072,0.0055,0.0095,0.0101,0.0046
430,0.0434,0.0200,0.0216,0.0093,0.0055,0.0119,0.0118,0.0064
431,0.0434,0.0203,0.0212,0.0100,0.0059,0.0123,0.0117,0.0069
432,0.0434,0.0182,0.0195,0.0090,0.0063,0.0102,0.0096,0.0057
433,0.0434,0.0174,0.0194,0.0084,0.0065,0.0085,0.0083,0.0051
434,0.0434,0.0186,0.0199,0.0102,0.0059,0.0099,0.0088,0.0068
435,0.0434,0.0324,0.0312,0.0221,0.0058,0.0221,0.0207,0.0153
436,0.0434,0.0169,0.0190,0.0054,0.0062,0.0078,0.0083,0.0016
437,0.0434,0.0158,0.0177,0.0054,0.0063,0.0067,0.0066,0.0014
438,0.0434,0.0158,0.0177,0.0054,0.0063,0.0067,0.0066,0.0014
439,0.0434,0.0158,0.0177,0.0054,0.0063,0.0067,0.0066,0.0014
440,0.0434,0.0158,0.0177,0.0054,0.0063,0.0067,0.0066,0.0014
441,0.0434,0.0158,0.0177,0.0054,0.0063,0.0067,0.0066,0.0014
442,0.0434,0.0158,0.0177,0.0054,0.0063,0.0067,0.0066,0.0014
443,0.0434,0.0158,0.0177,0.0054,0.0063,0.0067,0.0066,0.0014
444,0.0434,0.0158,0.0177,0.0054,0.0063,0.0067,0.0066,0.0014
445,0.0434,0.0158,0.0177,0.0054,0.0063,0.0067,0.0066,0.0014
446,0.0434,0.0158,0.0177,0.0054,0.0063,0.0067,0.0066,0.0014
447,0.0434,0.0154,0.0174,0.0054,0.0056,0.0056,0.0057,0.0018
448,0.0434,0.0158,0.0177,0.0054,0.0063,0.0067,0.0066,0.0014
449,0.0434,0.0158,0.0177,0.0054,0.0063,0.0067,0.0066,0.0014
450,0.0434,0.0158,0.0177,0.0054,0.0063,0.0067,0.0066,0.0014
451,0.0434,0.0158,0.0177,0.0054,0.0063,0.0067,0.0066,0.0014
452,0.0434,0.0158,0.0177,0.0054,0.0063,0.0067,0.0066,0.0014
453,0.0434,0.0158,0.0177,0.0054,0.0063,0.0067,0.0066,0.0014
454,0.0434,0.0158,0.0177,0.0054,0.0063,0.0067,0.0066,0.0014
455,0.0434,0.0158,0.0177,0.0054,0.0063,0.0067,0.0066,0.0014
456,0.0434,0.0158,0.0177,0.0054,0.0063,0.0067,0.0066,0.0014
457,0.0434,0.0158,0.0177,0.0054,0.0063,0.0067,0.0066,0.0014
458,0.0434,0.0176,0.0196,0.0055,0.0057,0.0093,0.0099,0.0020
459,0.0434,0.0158,0.0177,0.0054,0.0063,0.0067,0.0066,0.0014
460,0.0434,0.0158,0.0177,0.0054,0.0063,0.0067,0.0066,0.0014
461,0.0434,0.0158,0.0177,0.0054,0.0063,0.0067,0.0066,0.0014
462,0.0434,0.0158,0.0177,0.0054,0.0063,0.0067,0.0066,0.0014
463,0.0434,0.0158,0.0177,0.0054,0.0063,0.0067,0.0066,0.0014
464,0.0434,0.0158,0.0177,0.0054,0.0063,0.0067,0.0066,0.0014
465,0.0434,0.0158,0.0177,0.0054,0.0063,0.0067,0.0066,0.0014
466,0.0434,0.0158,0.0177,0.0054,0.0063,0.0067,0.0066,0.0014
467,0.0434,0.0158,0.0177,0.0054,0.0063,0.0067,0.0066,0.0014
468,0.0434,0.0158,0.0177,0.0054,0.0063,0.0067,0.0066,0.0014
469,0.0435,0.0169,0.0191,0.0056,0.0057,0.0081,0.0088,0.0022
470,0.0434,0.0158,0.0177,0.0054,0.0063,0.0067,0.0066,0.0014
471,0.0434,0.0158,0.0177,0.0054,0.0063,0.0067,0.0066,0.0014
472,0.0434,0.0158,0.0177,0.0054,0.0063,0.0067,0.0066,0.0014
473,0.0434,0.0158,0.0177,0.0054,0.0063,0.0067,0.0066,0.0014
474,0.0434,0.0158,0.0177,0.0054,0.0063,0.0067,0.0066,0.0014
475,0.0436,0.0158,0.0205,0.0055,0.0076,0.0065,0.0105,0.0018
476,0.0436,0.0159,0.0201,0.0055,0.0074,0.0068,0.0100,0.0020
477,0.0435,0.0161,0.0199,0.0056,0.0072,0.0070,0.0097,0.0022
478,0.0435,0.0157,0.0189,0.0056,0.0071,0.0065,0.0087,0.0023
479,0.0434,0.0176,0.0196,0.0055,0.0057,0.0093,0.0099,0.0020
480,0.0435,0.0178,0.0199,0.0057,0.0056,0.0098,0.0100,0.0026
481,0.0435,0.0157,0.0183,0.0056,0.0070,0.0062,0.0078,0.0022
482,0.0435,0.0155,0.0178,0.0055,0.0070,0.0058,0.0066,0.0019
483,0.0435,0.0156,0.0179,0.0054,0.0069,0.0060,0.0070,0.0017
484,0.0435,0.0156,0.0177,0.0054,0.0066,0.0060,0.0063,0.0014
485,0.0434,0.0160,0.0181,0.0053,0.0064,0.0070,0.0074,0.0013
486,0.0435,0.0155,0.0175,0.0054,0.0071,0.0060,0.0062,0.0015
487,0.0436,0.0161,0.0178,0.0054,0.0078,0.0072,0.0067,0.0014
488,0.0435,0.0168,0.0182,0.0054,0.0071,0.0086,0.0076,0.0015
489,0.0434,0.0169,0.0190,0.0054,0.0062,0.0078,0.0083,0.0016
490,0.0434,0.0154,0.0174,0.0054,0.0056,0.0056,0.0057,0.0018
491,0.0435,0.0176,0.0190,0.0059,0.0055,0.0096,0.0089,0.0029
492,0.0434,0.0176,0.0196,0.0055,0.0057,0.0093,0.0099,0.0020
493,0.0435,0.0169,0.0191,0.0056,0.0057,0.0081,0.0088,0.0022
494,0.0435,0.0178,0.0199,0.0057,0.0056,0.0098,0.0100,0.0026
495,0.0435,0.0176,0.0190,0.0059,0.0055,0.0096,0.0089,0.0029
496,0.0435,0.0194,0.0200,0.0061,0.0056,0.0118,0.0104,0.0032
497,0.0435,0.0285,0.0280,0.0166,0.0061,0.0192,0.0183,0.0115
498,0.0434,0.0184,0.0192,0.0122,0.0058,0.0105,0.0090,0.0085
499,0.0434,0.0188,0.0192,0.0127,0.0056,0.0109,0.0090,0.0090
500,0.0434,0.0177,0.0181,0.0058,0.0058,0.0071,0.0067,0.0025
501,0.0434,0.0177,0.0181,0.0058,0.0058,0.0071,0.0067,0.0025
502,0.0434,0.0177,0.0181,0.0058,0.0058,0.0071,0.0067,0.0025
503,0.0434,0.0184,0.0188,0.0058,0.0063,0.0087,0.0082,0.0025
504,0.0434,0.0184,0.0188,0.0058,0.0063,0.0087,0.0082,0.0025
505,0.0435,0.0181,0.0183,0.0056,0.0069,0.0080,0.0071,0.0023
506,0.0435,0.0194,0.0192,0.0054,0.0066,0.0087,0.0085,0.0018
507,0.0434,0.0201,0.0197,0.0054,0.0063,0.0102,0.0091,0.0016
508,0.0434,0.0198,0.0189,0.0055,0.0062,0.0097,0.0082,0.0020
509,0.0435,0.0212,0.0205,0.0054,0.0062,0.0105,0.0103,0.0018
510,0.0435,0.0214,0.0216,0.0054,0.0061,0.0106,0.0113,0.0016
511,0.0435,0.0227,0.0219,0.0055,0.0060,0.0113,0.0117,0.0022
512,0.0435,0.0210,0.0201,0.0060,0.0060,0.0098,0.0095,0.0030
513,0.0436,0.0223,0.0225,0.0068,0.0064,0.0113,0.0128,0.0039
514,0.0435,0.0181,0.0183,0.0056,0.0069,0.0080,0.0071,0.0023
515,0.0435,0.0325,0.0268,0.0187,0.0059,0.0195,0.0149,0.0106
516,0.0435,0.0299,0.0260,0.0154,0.0060,0.0161,0.0130,0.0085
517,0.0434,0.0264,0.0249,0.0135,0.0058,0.0140,0.0127,0.0081
518,0.0434,0.0231,0.0226,0.0120,0.0057,0.0108,0.0107,0.0076
519,0.0434,0.0218,0.0218,0.0105,0.0058,0.0112,0.0111,0.0066
520,0.0434,0.0200,0.0199,0.0078,0.0060,0.0088,0.0088,0.0041
521,0.0434,0.0194,0.0193,0.0070,0.0063,0.0080,0.0078,0.0031
522,0.0434,0.0186,0.0188,0.0064,0.0063,0.0075,0.0072,0.0029
523,0.0434,0.0188,0.0197,0.0059,0.0060,0.0086,0.0092,0.0025
524,0.0434,0.0184,0.0188,0.0059,0.0057,0.0082,0.0079,0.0026
525,0.0435,0.0194,0.0192,0.0054,0.0066,0.0087,0.0085,0.0018
526,0.0434,0.0181,0.0185,0.0054,0.0056,0.0067,0.0066,0.0016
527,0.0434,0.0189,0.0198,0.0054,0.0055,0.0080,0.0086,0.0016
528,0.0434,0.0188,0.0196,0.0058,0.0056,0.0074,0.0081,0.0027
529,0.0434,0.0195,0.0202,0.0072,0.0058,0.0092,0.0094,0.0045
530,0.0434,0.0207,0.0211,0.0083,0.0058,0.0102,0.0102,0.0055
531,0.0434,0.0223,0.0234,0.0082,0.0055,0.0109,0.0115,0.0052
532,0.0434,0.0282,0.0300,0.0080,0.0060,0.0149,0.0163,0.0042
533,0.0434,0.0350,0.0360,0.0113,0.0064,0.0193,0.0204,0.0068
534,0.0434,0.0370,0.0357,0.0138,0.0062,0.0200,0.0195,0.0087
535,0.0434,0.0351,0.0323,0.0164,0.0064,0.0201,0.0190,0.0099
536,0.0434,0.0201,0.0197,0.0054,0.0063,0.0102,0.0091,0.0016
537,0.0434,0.0177,0.0181,0.0058,0.0058,0.0071,0.0067,0.0025
538,0.0434,0.0177,0.0181,0.0058,0.0058,0.0071,0.0067,0.0025
539,0.0434,0.0177,0.0181,0.0058,0.0058,0.0071,0.0067,0.0025
540,0.0434,0.0177,0.0181,0.0058,0.0058,0.0071,0.0067,0.0025
541,0.0434,0.0177,0.0181,0.0058,0.0058,0.0071,0.0067,0.0025
542,0.0434,0.0177,0.0181,0.0058,0.0058,0.0071,0.0067,0.0025
543,0.0434,0.0177,0.0181,0.0058,0.0058,0.0071,0.0067,0.0025
544,0.0434,0.0177,0.0181,0.0058,0.0058,0.0071,0.0067,0.0025
545,0.0434,0.0177,0.0181,0.0058,0.0058,0.0071,0.0067,0.0025
546,0.0434,0.0177,0.0181,0.0058,0.0058,0.0071,0.0067,0.0025
547,0.0434,0.0198,0.0189,0.0055,0.0062,0.0097,0.0082,0.0020
548,0.0434,0.0177,0.0181,0.0058,0.0058,0.0071,0.0067,0.0025
549,0.0434,0.0177,0.0181,0.0058,0.0058,0.0071,0.0067,0.0025
550,0.0434,0.0177,0.0181,0.0058,0.0058,0.0071,0.0067,0.0025
551,0.0434,0.0177,0.0181,0.0058,0.0058,0.0071,0.0067,0.0025
552,0.0434,0.0177,0.0181,0.0058,0.0058,0.0071,0.0067,0.0025
553,0.0434,0.0177,0.0181,0.0058,0.0058,0.0071,0.0067,0.0025
554,0.0434,0.0177,0.0181,0.0058,0.0058,0.0071,0.0067,0.0025
555,0.0434,0.0177,0.0181,0.0058,0.0058,0.0071,0.0067,0.0025
556,0.0434,0.0177,0.0181,0.0058,0.0058,0.0071,0.0067,0.0025
557,0.0434,0.0177,0.0181,0.0058,0.0058,0.0071,0.0067,0.0025
558,0.0435,0.0212,0.0205,0.0054,0.0062,0.0105,0.0103,0.0018
559,0.0434,0.0177,0.0181,0.0058,0.0058,0.0071,0.0067,0.0025
560,0.0434,0.0177,0.0181,0.0058,0.0058,0.0071,0.0067,0.0025
561,0.0434,0.0177,0.0181,0.0058,0.0058,0.0071,0.0067,0.0025
562,0.0434,0.0177,0.0181,0.0058,0.0058,0.0071,0.0067,0.0025
563,0.0434,0.0177,0.0181,0.0058,0.0058,0.0071,0.0067,0.0025
564,0.0434,0.0177,0.0181,0.0058,0.0058,0.0071,0.0067,0.0025
565,0.0434,0.0177,0.0181,0.0058,0.0058,0.0071,0.0067,0.0025
566,0.0434,0.0177,0.0181,0.0058,0.0058,0.0071,0.0067,0.0025
567,0.0434,0.0177,0.0181,0.0058,0.0058,0.0071,0.0067,0.0025
568,0.0434,0.0177,0.0181,0.0058,0.0058,0.0071,0.0067,0.0025
569,0.0435,0.0214,0.0216,0.0054,0.0061,0.0106,0.0113,0.0016
570,0.0434,0.0177,0.0181,0.0058,0.0058,0.0071,0.0067,0.0025
571,0.0434,0.0177,0.0181,0.0058,0.0058,0.0071,0.0067,0.0025
572,0.0434,0.0177,0.0181,0.0058,0.0058,0.0071,0.0067,0.0025
573,0.0434,0.0177,0.0181,0.0058,0.0058,0.0071,0.0067,0.0025
574,0.0434,0.0177,0.0181,0.0058,0.0058,0.0071,0.0067,0.0025
575,0.0436,0.0166,0.0241,0.0079,0.0078,0.0065,0.0137,0.0047
576,0.0436,0.0167,0.0221,0.0076,0.0073,0.0064,0.0119,0.0046
577,0.0435,0.0167,0.0210,0.0072,0.0068,0.0069,0.0108,0.0044
578,0.0435,0.0170,0.0199,0.0069,0.0066,0.0070,0.0096,0.0041
579,0.0435,0.0212,0.0205,0.0054,0.0062,0.0105,0.0103,0.0018
580,0.0435,0.0227,0.0219,0.0055,0.0060,0.0113,0.0117,0.0022
581,0.0435,0.0169,0.0188,0.0063,0.0062,0.0064,0.0081,0.0034
582,0.0434,0.0173,0.0182,0.0060,0.0061,0.0073,0.0066,0.0030
583,0.0434,0.0175,0.0184,0.0058,0.0060,0.0073,0.0071,0.0027
584,0.0434,0.0177,0.0186,0.0057,0.0059,0.0072,0.0074,0.0025
585,0.0434,0.0181,0.0188,0.0058,0.0058,0.0077,0.0078,0.0025
586,0.0434,0.0184,0.0188,0.0058,0.0063,0.0087,0.0082,0.0025
587,0.0435,0.0181,0.0183,0.0056,0.0069,0.0080,0.0071,0.0023
588,0.0435,0.0194,0.0192,0.0054,0.0066,0.0087,0.0085,0.0018
589,0.0434,0.0201,0.0197,0.0054,0.0063,0.0102,0.0091,0.0016
590,0.0434,0.0198,0.0189,0.0055,0.0062,0.0097,0.0082,0.0020
591,0.0435,0.0210,0.0201,0.0060,0.0060,0.0098,0.0095,0.0030
592,0.0435,0.0212,0.0205,0.0054,0.0062,0.0105,0.0103,0.0018
593,0.0435,0.0214,0.0216,0.0054,0.0061,0.0106,0.0113,0.0016
594,0.0435,0.0227,0.0219,0.0055,0.0060,0.0113,0.0117,0.0022
595,0.0435,0.0210,0.0201,0.0060,0.0060,0.0098,0.0095,0.0030
596,0.0436,0.0223,0.0225,0.0068,0.0064,0.0113,0.0128,0.0039
597,0.0435,0.0325,0.0268,0.0187,0.0059,0.0195,0.0149,0.0106
598,0.0435,0.0299,0.0260,0.0154,0.0060,0.0161,0.0130,0.0085
599,0.0434,0.0264,0.0249,0.0135,0.0058,0.0140,0.0127,0.0081
600,0.0434,0.0171,0.0180,0.0056,0.0060,0.0068,0.0066,0.0023
601,0.0434,0.0171,0.0180,0.0056,0.0060,0.0068,0.0066,0.0023
602,0.0434,0.0171,0.0180,0.0056,0.0060,0.0068,0.0066,0.0023
603,0.0435,0.0173,0.0179,0.0056,0.0064,0.0076,0.0067,0.0022
604,0.0435,0.0173,0.0179,0.0056,0.0064,0.0076,0.0067,0.0022
605,0.0435,0.0173,0.0183,0.0055,0.0070,0.0073,0.0074,0.0020
606,0.0435,0.0184,0.0193,0.0054,0.0066,0.0085,0.0090,0.0015
607,0.0434,0.0194,0.0198,0.0055,0.0061,0.0100,0.0093,0.0019
608,0.0434,0.0184,0.0181,0.0056,0.0060,0.0083,0.0070,0.0022
609,0.0435,0.0198,0.0197,0.0056,0.0061,0.0101,0.0095,0.0021
610,0.0435,0.0201,0.0202,0.0055,0.0060,0.0097,0.0099,0.0019
611,0.0435,0.0211,0.0210,0.0055,0.0059,0.0108,0.0109,0.0018
612,0.0435,0.0197,0.0196,0.0056,0.0060,0.0096,0.0093,0.0023
613,0.0436,0.0211,0.0223,0.0060,0.0063,0.0115,0.0122,0.0031
614,0.0435,0.0173,0.0183,0.0055,0.0070,0.0073,0.0074,0.0020
615,0.0435,0.0267,0.0243,0.0152,0.0059,0.0148,0.0134,0.0091
616,0.0435,0.0256,0.0236,0.0130,0.0059,0.0139,0.0118,0.0075
617,0.0434,0.0235,0.0231,0.0120,0.0058,0.0124,0.0116,0.0074
618,0.0434,0.0212,0.0215,0.0109,0.0056,0.0101,0.0101,0.0069
619,0.0434,0.0205,0.0211,0.0098,0.0057,0.0112,0.0111,0.0063
620,0.0434,0.0193,0.0200,0.0074,0.0059,0.0095,0.0098,0.0040
621,0.0434,0.0180,0.0186,0.0065,0.0061,0.0072,0.0072,0.0028
622,0.0434,0.0177,0.0186,0.0061,0.0061,0.0067,0.0069,0.0027
623,0.0434,0.0181,0.0193,0.0058,0.0058,0.0082,0.0086,0.0024
624,0.0434,0.0177,0.0186,0.0057,0.0057,0.0079,0.0079,0.0022
625,0.0435,0.0184,0.0193,0.0054,0.0066,0.0085,0.0090,0.0015
626,0.0434,0.0174,0.0183,0.0054,0.0057,0.0065,0.0067,0.0015
627,0.0434,0.0177,0.0190,0.0054,0.0054,0.0071,0.0078,0.0017
628,0.0434,0.0174,0.0187,0.0057,0.0054,0.0068,0.0074,0.0025
629,0.0434,0.0182,0.0193,0.0070,0.0056,0.0082,0.0086,0.0043
630,0.0434,0.0195,0.0201,0.0086,0.0055,0.0100,0.0096,0.0058
631,0.0434,0.0203,0.0213,0.0084,0.0054,0.0101,0.0103,0.0054
632,0.0434,0.0253,0.0274,0.0076,0.0061,0.0137,0.0151,0.0040
633,0.0434,0.0316,0.0330,0.0103,0.0064,0.0181,0.0192,0.0061
634,0.0434,0.0323,0.0320,0.0119,0.0061,0.0180,0.0178,0.0074
635,0.0434,0.0307,0.0289,0.0150,0.0061,0.0182,0.0172,0.0089
636,0.0434,0.0194,0.0198,0.0055,0.0061,0.0100,0.0093,0.0019
637,0.0434,0.0171,0.0180,0.0056,0.0060,0.0068,0.0066,0.0023
638,0.0434,0.0171,0.0180,0.0056,0.0060,0.0068,0.0066,0.0023
639,0.0434,0.0171,0.0180,0.0056,0.0060,0.0068,0.0066,0.0023
640,0.0434,0.0171,0.0180,0.0056,0.0060,0.0068,0.0066,0.0023
641,0.0434,0.0171,0.0180,0.0056,0.0060,0.0068,0.0066,0.0023
642,0.0434,0.0171,0.0180,0.0056,0.0060,0.0068,0.0066,0.0023
643,0.0434,0.0171,0.0180,0.0056,0.0060,0.0068,0.0066,0.0023
644,0.0434,0.0171,0.0180,0.0056,0.0060,0.0068,0.0066,0.0023
645,0.0434,0.0171,0.0180,0.0056,0.0060,0.0068,0.0066,0.0023
646,0.0434,0.0171,0.0180,0.0056,0.0060,0.0068,0.0066,0.0023
647,0.0434,0.0184,0.0181,0.0056,0.0060,0.0083,0.0070,0.0022
648,0.0434,0.0171,0.0180,0.0056,0.0060,0.0068,0.0066,0.0023
649,0.0434,0.0171,0.0180,0.0056,0.0060,0.0068,0.0066,0.0023
650,0.0434,0.0171,0.0180,0.0056,0.0060,0.0068,0.0066,0.0023
651,0.0434,0.0171,0.0180,0.0056,0.0060,0.0068,0.0066,0.0023
652,0.0434,0.0171,0.0180,0.0056,0.0060,0.0068,0.0066,0.0023
653,0.0434,0.0171,0.0180,0.0056,0.0060,0.0068,0.0066,0.0023
654,0.0434,0.0171,0.0180,0.0056,0.0060,0.0068,0.0066,0.0023
655,0.0434,0.0171,0.0180,0.0056,0.0060,0.0068,0.0066,0.0023
656,0.0434,0.0171,0.0180,0.0056,0.0060,0.0068,0.0066,0.0023
657,0.0434,0.0171,0.0180,0.0056,0.0060,0.0068,0.0066,0.0023
658,0.0435,0.0198,0.0197,0.0056,0.0061,0.0101,0.0095,0.0021
659,0.0434,0.0171,0.0180,0.0056,0.0060,0.0068,0.0066,0.0023
660,0.0434,0.0171,0.0180,0.0056,0.0060,0.0068,0.0066,0.0023
661,0.0434,0.0171,0.0180,0.0056,0.0060,0.0068,0.0066,0.0023
662,0.0434,0.0171,0.0180,0.0056,0.0060,0.0068,0.0066,0.0023
663,0.0434,0.0171,0.0180,0.0056,0.0060,0.0068,0.0066,0.0023
664,0.0434,0.0171,0.0180,0.0056,0.0060,0.0068,0.0066,0.0023
665,0.0434,0.0171,0.0180,0.0056,0.0060,0.0068,0.0066,0.0023
666,0.0434,0.0171,0.0180,0.0056,0.0060,0.0068,0.0066,0.0023
667,0.0434,0.0171,0.0180,0.0056,0.0060,0.0068,0.0066,0.0023
668,0.0434,0.0171,0.0180,0.0056,0.0060,0.0068,0.0066,0.0023
669,0.0435,0.0201,0.0202,0.0055,0.0060,0.0097,0.0099,0.0019
670,0.0434,0.0171,0.0180,0.0056,0.0060,0.0068,0.0066,0.0023
671,0.0434,0.0171,0.0180,0.0056,0.0060,0.0068,0.0066,0.0023
672,0.0434,0.0171,0.0180,0.0056,0.0060,0.0068,0.0066,0.0023
673,0.0434,0.0171,0.0180,0.0056,0.0060,0.0068,0.0066,0.0023
674,0.0434,0.0171,0.0180,0.0056,0.0060,0.0068,0.0066,0.0023
675,0.0437,0.0162,0.0216,0.0071,0.0080,0.0061,0.0116,0.0040
676,0.0436,0.0163,0.0208,0.0069,0.0076,0.0063,0.0107,0.0040
677,0.0435,0.0164,0.0194,0.0067,0.0072,0.0066,0.0091,0.0039
678,0.0435,0.0166,0.0186,0.0065,0.0069,0.0069,0.0078,0.0037
679,0.0435,0.0198,0.0197,0.0056,0.0061,0.0101,0.0095,0.0021
680,0.0435,0.0211,0.0210,0.0055,0.0059,0.0108,0.0109,0.0018
681,0.0435,0.0166,0.0183,0.0060,0.0066,0.0065,0.0072,0.0030
682,0.0435,0.0168,0.0179,0.0058,0.0064,0.0072,0.0062,0.0027
683,0.0434,0.0167,0.0182,0.0057,0.0064,0.0067,0.0073,0.0024
684,0.0434,0.0169,0.0181,0.0056,0.0062,0.0068,0.0068,0.0022
685,0.0434,0.0174,0.0184,0.0056,0.0060,0.0075,0.0071,0.0022
686,0.0435,0.0173,0.0179,0.0056,0.0064,0.0076,0.0067,0.0022
687,0.0435,0.0173,0.0183,0.0055,0.0070,0.0073,0.0074,0.0020
688,0.0435,0.0184,0.0193,0.0054,0.0066,0.0085,0.0090,0.0015
689,0.0434,0.0194,0.0198,0.0055,0.0061,0.0100,0.0093,0.0019
690,0.0434,0.0184,0.0181,0.0056,0.0060,0.0083,0.0070,0.0022
691,0.0435,0.0197,0.0196,0.0056,0.0060,0.0096,0.0093,0.0023
692,0.0435,0.0198,0.0197,0.0056,0.0061,0.0101,0.0095,0.0021
693,0.0435,0.0201,0.0202,0.0055,0.0060,0.0097,0.0099,0.0019
694,0.0435,0.0211,0.0210,0.0055,0.0059,0.0108,0.0109,0.0018
695,0.0435,0.0197,0.0196,0.0056,0.0060,0.0096,0.0093,0.0023
696,0.0436,0.0211,0.0223,0.0060,0.0063,0.0115,0.0122,0.0031
697,0.0435,0.0267,0.0243,0.0152,0.0059,0.0148,0.0134,0.0091
698,0.0435,0.0256,0.0236,0.0130,0.0059,0.0139,0.0118,0.0075
699,0.0434,0.0235,0.0231,0.0120,0.0058,0.0124,0.0116,0.0074
700,0.0434,0.0161,0.0178,0.0055,0.0064,0.0066,0.0066,0.0020
701,0.0434,0.0161,0.0178,0.0055,0.0064,0.0066,0.0066,0.0020
702,0.0434,0.0161,0.0178,0.0055,0.0064,0.0066,0.0066,0.0020
703,0.0435,0.0165,0.0178,0.0054,0.0069,0.0075,0.0065,0.0019
704,0.0435,0.0165,0.0178,0.0054,0.0069,0.0075,0.0065,0.0019
705,0.0436,0.0165,0.0179,0.0054,0.0075,0.0077,0.0068,0.0016
706,0.0435,0.0172,0.0185,0.0054,0.0069,0.0084,0.0077,0.0017
707,0.0434,0.0178,0.0200,0.0055,0.0060,0.0088,0.0101,0.0019
708,0.0434,0.0170,0.0178,0.0056,0.0057,0.0081,0.0066,0.0023
709,0.0434,0.0181,0.0192,0.0056,0.0059,0.0094,0.0090,0.0022
710,0.0435,0.0175,0.0189,0.0056,0.0059,0.0088,0.0086,0.0022
711,0.0435,0.0191,0.0204,0.0056,0.0057,0.0110,0.0108,0.0023
712,0.0435,0.0186,0.0197,0.0056,0.0057,0.0098,0.0091,0.0023
713,0.0435,0.0212,0.0223,0.0057,0.0060,0.0128,0.0122,0.0023
714,0.0436,0.0165,0.0179,0.0054,0.0075,0.0077,0.0068,0.0016
715,0.0434,0.0224,0.0236,0.0117,0.0058,0.0133,0.0139,0.0074
716,0.0434,0.0186,0.0194,0.0093,0.0057,0.0089,0.0084,0.0057
717,0.0434,0.0190,0.0201,0.0099,0.0056,0.0096,0.0093,0.0062
718,0.0434,0.0191,0.0202,0.0102,0.0054,0.0106,0.0098,0.0068
719,0.0434,0.0189,0.0205,0.0090,0.0055,0.0108,0.0108,0.0059
720,0.0434,0.0177,0.0195,0.0066,0.0058,0.0090,0.0096,0.0037
721,0.0434,0.0165,0.0180,0.0059,0.0064,0.0066,0.0067,0.0023
722,0.0434,0.0167,0.0184,0.0059,0.0061,0.0065,0.0070,0.0025
723,0.0434,0.0171,0.0190,0.0057,0.0059,0.0075,0.0081,0.0024
724,0.0434,0.0168,0.0184,0.0054,0.0061,0.0076,0.0077,0.0017
725,0.0435,0.0172,0.0185,0.0054,0.0069,0.0084,0.0077,0.0017
726,0.0434,0.0159,0.0178,0.0054,0.0062,0.0059,0.0065,0.0014
727,0.0434,0.0163,0.0184,0.0054,0.0057,0.0067,0.0076,0.0018
728,0.0434,0.0161,0.0180,0.0057,0.0053,0.0061,0.0065,0.0024
729,0.0434,0.0171,0.0187,0.0071,0.0053,0.0086,0.0085,0.0044
730,0.0434,0.0180,0.0190,0.0085,0.0053,0.0096,0.0088,0.0057
731,0.0434,0.0178,0.0190,0.0086,0.0056,0.0090,0.0085,0.0057
732,0.0434,0.0191,0.0216,0.0071,0.0062,0.0101,0.0115,0.0037
733,0.0434,0.0234,0.0257,0.0081,0.0064,0.0139,0.0152,0.0045
734,0.0434,0.0224,0.0236,0.0089,0.0059,0.0126,0.0128,0.0051
735,0.0434,0.0254,0.0254,0.0159,0.0058,0.0157,0.0148,0.0103
736,0.0434,0.0178,0.0200,0.0055,0.0060,0.0088,0.0101,0.0019
737,0.0434,0.0161,0.0178,0.0055,0.0064,0.0066,0.0066,0.0020
738,0.0434,0.0161,0.0178,0.0055,0.0064,0.0066,0.0066,0.0020
739,0.0434,0.0161,0.0178,0.0055,0.0064,0.0066,0.0066,0.0020
740,0.0434,0.0161,0.0178,0.0055,0.0064,0.0066,0.0066,0.0020
741,0.0434,0.0161,0.0178,0.0055,0.0064,0.0066,0.0066,0.0020
742,0.0434,0.0161,0.0178,0.0055,0.0064,0.0066,0.0066,0.0020
743,0.0434,0.0161,0.0178,0.0055,0.0064,0.0066,0.0066,0.0020
744,0.0434,0.0161,0.0178,0.0055,0.0064,0.0066,0.0066,0.0020
745,0.0434,0.0161,0.0178,0.0055,0.0064,0.0066,0.0066,0.0020
746,0.0434,0.0161,0.0178,0.0055,0.0064,0.0066,0.0066,0.0020
747,0.0434,0.0170,0.0178,0.0056,0.0057,0.0081,0.0066,0.0023
748,0.0434,0.0161,0.0178,0.0055,0.0064,0.0066,0.0066,0.0020
749,0.0434,0.0161,0.0178,0.0055,0.0064,0.0066,0.0066,0.0020
750,0.0434,0.0161,0.0178,0.0055,0.0064,0.0066,0.0066,0.0020
751,0.0434,0.0161,0.0178,0.0055,0.0064,0.0066,0.0066,0.0020
752,0.0434,0.0161,0.0178,0.0055,0.0064,0.0066,0.0066,0.0020
753,0.0434,0.0161,0.0178,0.0055,0.0064,0.0066,0.0066,0.0020
754,0.0434,0.0161,0.0178,0.0055,0.0064,0.0066,0.0066,0.0020
755,0.0434,0.0161,0.0178,0.0055,0.0064,0.0066,0.0066,0.0020
756,0.0434,0.0161,0.0178,0.0055,0.0064,0.0066,0.0066,0.0020
757,0.0434,0.0161,0.0178,0.0055,0.0064,0.0066,0.0066,0.0020
758,0.0434,0.0181,0.0192,0.0056,0.0059,0.0094,0.0090,0.0022
759,0.0434,0.0161,0.0178,0.0055,0.0064,0.0066,0.0066,0.0020
760,0.0434,0.0161,0.0178,0.0055,0.0064,0.0066,0.0066,0.0020
761,0.0434,0.0161,0.0178,0.0055,0.0064,0.0066,0.0066,0.0020
762,0.0434,0.0161,0.0178,0.0055,0.0064,0.0066,0.0066,0.0020
763,0.0434,0.0161,0.0178,0.0055,0.0064,0.0066,0.0066,0.0020
764,0.0434,0.0161,0.0178,0.0055,0.0064,0.0066,0.0066,0.0020
765,0.0434,0.0161,0.0178,0.0055,0.0064,0.0066,0.0066,0.0020
766,0.0434,0.0161,0.0178,0.0055,0.0064,0.0066,0.0066,0.0020
767,0.0434,0.0161,0.0178,0.0055,0.0064,0.0066,0.0066,0.0020
768,0.0434,0.0161,0.0178,0.0055,0.0064,0.0066,0.0066,0.0020
769,0.0435,0.0175,0.0189,0.0056,0.0059,0.0088,0.0086,0.0022
770,0.0434,0.0161,0.0178,0.0055,0.0064,0.0066,0.0066,0.0020
771,0.0434,0.0161,0.0178,0.0055,0.0064,0.0066,0.0066,0.0020
772,0.0434,0.0161,0.0178,0.0055,0.0064,0.0066,0.0066,0.0020
773,0.0434,0.0161,0.0178,0.0055,0.0064,0.0066,0.0066,0.0020
774,0.0434,0.0161,0.0178,0.0055,0.0064,0.0066,0.0066,0.0020
775,0.0438,0.0157,0.0181,0.0061,0.0085,0.0059,0.0070,0.0031
776,0.0437,0.0158,0.0178,0.0061,0.0082,0.0061,0.0066,0.0031
777,0.0436,0.0159,0.0179,0.0060,0.0079,0.0065,0.0065,0.0031
778,0.0436,0.0157,0.0179,0.0060,0.0078,0.0061,0.0068,0.0030
779,0.0434,0.0181,0.0192,0.0056,0.0059,0.0094,0.0090,0.0022
780,0.0435,0.0191,0.0204,0.0056,0.0057,0.0110,0.0108,0.0023
781,0.0436,0.0160,0.0177,0.0058,0.0074,0.0066,0.0062,0.0026
782,0.0435,0.0159,0.0176,0.0057,0.0072,0.0063,0.0061,0.0023
783,0.0435,0.0161,0.0178,0.0055,0.0070,0.0068,0.0065,0.0021
784,0.0435,0.0160,0.0177,0.0055,0.0068,0.0064,0.0064,0.0020
785,0.0435,0.0163,0.0180,0.0055,0.0066,0.0070,0.0068,0.0019
786,0.0435,0.0165,0.0178,0.0054,0.0069,0.0075,0.0065,0.0019
787,0.0436,0.0165,0.0179,0.0054,0.0075,0.0077,0.0068,0.0016
788,0.0435,0.0172,0.0185,0.0054,0.0069,0.0084,0.0077,0.0017
789,0.0434,0.0178,0.0200,0.0055,0.0060,0.0088,0.0101,0.0019
790,0.0434,0.0170,0.0178,0.0056,0.0057,0.0081,0.0066,0.0023
791,0.0435,0.0186,0.0197,0.0056,0.0057,0.0098,0.0091,0.0023
792,0.0434,0.0181,0.0192,0.0056,0.0059,0.0094,0.0090,0.0022
793,0.0435,0.0175,0.0189,0.0056,0.0059,0.0088,0.0086,0.0022
794,0.0435,0.0191,0.0204,0.0056,0.0057,0.0110,0.0108,0.0023
795,0.0435,0.0186,0.0197,0.0056,0.0057,0.0098,0.0091,0.0023
796,0.0435,0.0212,0.0223,0.0057,0.0060,0.0128,0.0122,0.0023
797,0.0434,0.0224,0.0236,0.0117,0.0058,0.0133,0.0139,0.0074
798,0.0434,0.0186,0.0194,0.0093,0.0057,0.0089,0.0084,0.0057
799,0.0434,0.0190,0.0201,0.0099,0.0056,0.0096,0.0093,0.0062
800,0.0435,0.0161,0.0178,0.0055,0.0067,0.0073,0.0067,0.0019
801,0.0435,0.0161,0.0178,0.0055,0.0067,0.0073,0.0067,0.0019
802,0.0435,0.0161,0.0178,0.0055,0.0067,0.0073,0.0067,0.0019
803,0.0435,0.0163,0.0179,0.0054,0.0072,0.0075,0.0069,0.0018
804,0.0435,0.0163,0.0179,0.0054,0.0072,0.0075,0.0069,0.0018
805,0.0436,0.0162,0.0178,0.0054,0.0079,0.0076,0.0068,0.0016
806,0.0435,0.0173,0.0184,0.0054,0.0070,0.0091,0.0077,0.0016
807,0.0434,0.0174,0.0193,0.0054,0.0060,0.0085,0.0087,0.0017
808,0.0434,0.0164,0.0178,0.0055,0.0056,0.0077,0.0067,0.0020
809,0.0434,0.0178,0.0194,0.0055,0.0058,0.0096,0.0096,0.0020
810,0.0435,0.0182,0.0199,0.0056,0.0059,0.0099,0.0100,0.0022
811,0.0435,0.0187,0.0203,0.0057,0.0057,0.0108,0.0107,0.0024
812,0.0435,0.0189,0.0203,0.0058,0.0056,0.0107,0.0103,0.0026
813,0.0435,0.0203,0.0206,0.0059,0.0057,0.0125,0.0110,0.0029
814,0.0436,0.0162,0.0178,0.0054,0.0079,0.0076,0.0068,0.0016
815,0.0435,0.0267,0.0269,0.0138,0.0059,0.0179,0.0175,0.0095
816,0.0434,0.0174,0.0186,0.0094,0.0056,0.0091,0.0078,0.0062
817,0.0434,0.0176,0.0189,0.0101,0.0055,0.0089,0.0079,0.0068
818,0.0434,0.0200,0.0210,0.0112,0.0054,0.0121,0.0113,0.0078
819,0.0434,0.0200,0.0221,0.0097,0.0054,0.0123,0.0127,0.0066
820,0.0434,0.0167,0.0194,0.0065,0.0059,0.0082,0.0094,0.0035
821,0.0435,0.0159,0.0178,0.0057,0.0066,0.0061,0.0064,0.0021
822,0.0434,0.0164,0.0184,0.0059,0.0065,0.0072,0.0075,0.0027
823,0.0434,0.0172,0.0189,0.0059,0.0062,0.0086,0.0085,0.0028
824,0.0434,0.0163,0.0183,0.0054,0.0064,0.0072,0.0075,0.0016
825,0.0435,0.0173,0.0184,0.0054,0.0070,0.0091,0.0077,0.0016
826,0.0434,0.0154,0.0174,0.0054,0.0064,0.0057,0.0055,0.0014
827,0.0434,0.0158,0.0180,0.0054,0.0060,0.0067,0.0071,0.0016
828,0.0434,0.0158,0.0179,0.0058,0.0057,0.0066,0.0070,0.0027
829,0.0434,0.0174,0.0194,0.0073,0.0054,0.0093,0.0095,0.0047
830,0.0434,0.0196,0.0210,0.0093,0.0054,0.0115,0.0113,0.0064
831,0.0434,0.0193,0.0201,0.0098,0.0057,0.0114,0.0106,0.0067
832,0.0434,0.0170,0.0187,0.0080,0.0062,0.0084,0.0077,0.0049
833,0.0434,0.0178,0.0203,0.0077,0.0063,0.0087,0.0099,0.0043
834,0.0434,0.0186,0.0202,0.0094,0.0057,0.0092,0.0091,0.0060
835,0.0434,0.0289,0.0282,0.0196,0.0060,0.0194,0.0182,0.0135
836,0.0434,0.0174,0.0193,0.0054,0.0060,0.0085,0.0087,0.0017
837,0.0435,0.0161,0.0178,0.0055,0.0067,0.0073,0.0067,0.0019
838,0.0435,0.0161,0.0178,0.0055,0.0067,0.0073,0.0067,0.0019
839,0.0435,0.0161,0.0178,0.0055,0.0067,0.0073,0.0067,0.0019
840,0.0435,0.0161,0.0178,0.0055,0.0067,0.0073,0.0067,0.0019
841,0.0435,0.0161,0.0178,0.0055,0.0067,0.0073,0.0067,0.0019
842,0.0435,0.0161,0.0178,0.0055,0.0067,0.0073,0.0067,0.0019
843,0.0435,0.0161,0.0178,0.0055,0.0067,0.0073,0.0067,0.0019
844,0.0435,0.0161,0.0178,0.0055,0.0067,0.0073,0.0067,0.0019
845,0.0435,0.0161,0.0178,0.0055,0.0067,0.0073,0.0067,0.0019
846,0.0435,0.0161,0.0178,0.0055,0.0067,0.0073,0.0067,0.0019
847,0.0434,0.0164,0.0178,0.0055,0.0056,0.0077,0.0067,0.0020
848,0.0435,0.0161,0.0178,0.0055,0.0067,0.0073,0.0067,0.0019
849,0.0435,0.0161,0.0178,0.0055,0.0067,0.0073,0.0067,0.0019
850,0.0435,0.0161,0.0178,0.0055,0.0067,0.0073,0.0067,0.0019
851,0.0435,0.0161,0.0178,0.0055,0.0067,0.0073,0.0067,0.0019
852,0.0435,0.0161,0.0178,0.0055,0.0067,0.0073,0.0067,0.0019
853,0.0435,0.0161,0.0178,0.0055,0.0067,0.0073,0.0067,0.0019
854,0.0435,0.0161,0.0178,0.0055,0.0067,0.0073,0.0067,0.0019
855,0.0435,0.0161,0.0178,0.0055,0.0067,0.0073,0.0067,0.0019
856,0.0435,0.0161,0.0178,0.0055,0.0067,0.0073,0.0067,0.0019
857,0.0435,0.0161,0.0178,0.0055,0.0067,0.0073,0.0067,0.0019
858,0.0434,0.0178,0.0194,0.0055,0.0058,0.0096,0.0096,0.0020
859,0.0435,0.0161,0.0178,0.0055,0.0067,0.0073,0.0067,0.0019
860,0.0435,0.0161,0.0178,0.0055,0.0067,0.0073,0.0067,0.0019
861,0.0435,0.0161,0.0178,0.0055,0.0067,0.0073,0.0067,0.0019
862,0.0435,0.0161,0.0178,0.0055,0.0067,0.0073,0.0067,0.0019
863,0.0435,0.0161,0.0178,0.0055,0.0067,0.0073,0.0067,0.0019
864,0.0435,0.0161,0.0178,0.0055,0.0067,0.0073,0.0067,0.0019
865,0.0435,0.0161,0.0178,0.0055,0.0067,0.0073,0.0067,0.0019
866,0.0435,0.0161,0.0178,0.0055,0.0067,0.0073,0.0067,0.0019
867,0.0435,0.0161,0.0178,0.0055,0.0067,0.0073,0.0067,0.0019
868,0.0435,0.0161,0.0178,0.0055,0.0067,0.0073,0.0067,0.0019
869,0.0435,0.0182,0.0199,0.0056,0.0059,0.0099,0.0100,0.0022
870,0.0435,0.0161,0.0178,0.0055,0.0067,0.0073,0.0067,0.0019
871,0.0435,0.0161,0.0178,0.0055,0.0067,0.0073,0.0067,0.0019
872,0.0435,0.0161,0.0178,0.0055,0.0067,0.0073,0.0067,0.0019
873,0.0435,0.0161,0.0178,0.0055,0.0067,0.0073,0.0067,0.0019
874,0.0435,0.0161,0.0178,0.0055,0.0067,0.0073,0.0067,0.0019
875,0.0438,0.0157,0.0186,0.0057,0.0088,0.0063,0.0083,0.0026
876,0.0438,0.0156,0.0179,0.0058,0.0086,0.0057,0.0068,0.0027
877,0.0437,0.0158,0.0184,0.0059,0.0083,0.0065,0.0078,0.0028
878,0.0437,0.0155,0.0178,0.0059,0.0082,0.0058,0.0065,0.0028
879,0.0434,0.0178,0.0194,0.0055,0.0058,0.0096,0.0096,0.0020
880,0.0435,0.0187,0.0203,0.0057,0.0057,0.0108,0.0107,0.0024
881,0.0436,0.0157,0.0179,0.0058,0.0079,0.0063,0.0069,0.0025
882,0.0436,0.0159,0.0181,0.0057,0.0077,0.0067,0.0072,0.0023
883,0.0436,0.0163,0.0186,0.0055,0.0074,0.0077,0.0084,0.0021
884,0.0435,0.0161,0.0181,0.0055,0.0071,0.0073,0.0075,0.0020
885,0.0435,0.0162,0.0182,0.0055,0.0068,0.0076,0.0075,0.0019
886,0.0435,0.0163,0.0179,0.0054,0.0072,0.0075,0.0069,0.0018
887,0.0436,0.0162,0.0178,0.0054,0.0079,0.0076,0.0068,0.0016
888,0.0435,0.0173,0.0184,0.0054,0.0070,0.0091,0.0077,0.0016
889,0.0434,0.0174,0.0193,0.0054,0.0060,0.0085,0.0087,0.0017
890,0.0434,0.0164,0.0178,0.0055,0.0056,0.0077,0.0067,0.0020
891,0.0435,0.0189,0.0203,0.0058,0.0056,0.0107,0.0103,0.0026
892,0.0434,0.0178,0.0194,0.0055,0.0058,0.0096,0.0096,0.0020
893,0.0435,0.0182,0.0199,0.0056,0.0059,0.0099,0.0100,0.0022
894,0.0435,0.0187,0.0203,0.0057,0.0057,0.0108,0.0107,0.0024
895,0.0435,0.0189,0.0203,0.0058,0.0056,0.0107,0.0103,0.0026
896,0.0435,0.0203,0.0206,0.0059,0.0057,0.0125,0.0110,0.0029
897,0.0435,0.0267,0.0269,0.0138,0.0059,0.0179,0.0175,0.0095
898,0.0434,0.0174,0.0186,0.0094,0.0056,0.0091,0.0078,0.0062
899,0.0434,0.0176,0.0189,0.0101,0.0055,0.0089,0.0079,0.0068
900,0.0435,0.0161,0.0180,0.0055,0.0067,0.0075,0.0072,0.0020
901,0.0435,0.0161,0.0180,0.0055,0.0067,0.0075,0.0072,0.0020
902,0.0435,0.0161,0.0180,0.0055,0.0067,0.0075,0.0072,0.0020
903,0.0435,0.0158,0.0177,0.0055,0.0074,0.0065,0.0065,0.0019
904,0.0435,0.0158,0.0177,0.0055,0.0074,0.0065,0.0065,0.0019
905,0.0436,0.0172,0.0186,0.0054,0.0079,0.0090,0.0083,0.0017
906,0.0435,0.0182,0.0191,0.0054,0.0071,0.0104,0.0092,0.0015
907,0.0434,0.0179,0.0194,0.0054,0.0061,0.0097,0.0088,0.0015
908,0.0434,0.0159,0.0176,0.0054,0.0056,0.0069,0.0063,0.0017
909,0.0434,0.0198,0.0213,0.0055,0.0059,0.0116,0.0118,0.0019
910,0.0435,0.0183,0.0203,0.0055,0.0059,0.0100,0.0104,0.0021
911,0.0435,0.0192,0.0209,0.0057,0.0058,0.0114,0.0114,0.0024
912,0.0435,0.0189,0.0199,0.0058,0.0056,0.0111,0.0101,0.0027
913,0.0435,0.0207,0.0210,0.0060,0.0056,0.0131,0.0115,0.0030
914,0.0436,0.0172,0.0186,0.0054,0.0079,0.0090,0.0083,0.0017
915,0.0435,0.0300,0.0295,0.0159,0.0060,0.0205,0.0196,0.0111
916,0.0434,0.0190,0.0197,0.0113,0.0056,0.0111,0.0098,0.0078
917,0.0434,0.0191,0.0195,0.0116,0.0055,0.0112,0.0094,0.0082
918,0.0434,0.0216,0.0226,0.0122,0.0054,0.0136,0.0131,0.0088
919,0.0434,0.0216,0.0238,0.0105,0.0054,0.0138,0.0144,0.0073
920,0.0434,0.0163,0.0191,0.0065,0.0060,0.0076,0.0091,0.0035
921,0.0435,0.0157,0.0178,0.0056,0.0067,0.0058,0.0066,0.0020
922,0.0435,0.0163,0.0185,0.0059,0.0066,0.0070,0.0077,0.0027
923,0.0434,0.0168,0.0187,0.0058,0.0063,0.0075,0.0076,0.0027
924,0.0435,0.0166,0.0184,0.0054,0.0065,0.0078,0.0076,0.0015
925,0.0435,0.0182,0.0191,0.0054,0.0071,0.0104,0.0092,0.0015
926,0.0435,0.0162,0.0181,0.0054,0.0064,0.0075,0.0075,0.0015
927,0.0434,0.0158,0.0182,0.0054,0.0061,0.0067,0.0074,0.0017
928,0.0434,0.0160,0.0184,0.0059,0.0057,0.0071,0.0079,0.0029
929,0.0434,0.0184,0.0204,0.0076,0.0055,0.0103,0.0108,0.0049
930,0.0434,0.0207,0.0221,0.0096,0.0055,0.0125,0.0124,0.0066
931,0.0434,0.0210,0.0215,0.0103,0.0058,0.0129,0.0122,0.0071
932,0.0434,0.0186,0.0197,0.0092,0.0061,0.0106,0.0098,0.0059
933,0.0434,0.0176,0.0196,0.0084,0.0062,0.0087,0.0084,0.0052
934,0.0434,0.0187,0.0199,0.0100,0.0056,0.0097,0.0085,0.0067
935,0.0434,0.0329,0.0313,0.0220,0.0062,0.0225,0.0207,0.0152
936,0.0434,0.0179,0.0194,0.0054,0.0061,0.0097,0.0088,0.0015
937,0.0435,0.0161,0.0180,0.0055,0.0067,0.0075,0.0072,0.0020
938,0.0435,0.0161,0.0180,0.0055,0.0067,0.0075,0.0072,0.0020
939,0.0435,0.0161,0.0180,0.0055,0.0067,0.0075,0.0072,0.0020
940,0.0435,0.0161,0.0180,0.0055,0.0067,0.0075,0.0072,0.0020
941,0.0435,0.0161,0.0180,0.0055,0.0067,0.0075,0.0072,0.0020
942,0.0435,0.0161,0.0180,0.0055,0.0067,0.0075,0.0072,0.0020
943,0.0435,0.0161,0.0180,0.0055,0.0067,0.0075,0.0072,0.0020
944,0.0435,0.0161,0.0180,0.0055,0.0067,0.0075,0.0072,0.0020
945,0.0435,0.0161,0.0180,0.0055,0.0067,0.0075,0.0072,0.0020
946,0.0435,0.0161,0.0180,0.0055,0.0067,0.0075,0.0072,0.0020
947,0.0434,0.0159,0.0176,0.0054,0.0056,0.0069,0.0063,0.0017
948,0.0435,0.0161,0.0180,0.0055,0.0067,0.0075,0.0072,0.0020
949,0.0435,0.0161,0.0180,0.0055,0.0067,0.0075,0.0072,0.0020
950,0.0435,0.0161,0.0180,0.0055,0.0067,0.0075,0.0072,0.0020
951,0.0435,0.0161,0.0180,0.0055,0.0067,0.0075,0.0072,0.0020
952,0.0435,0.0161,0.0180,0.0055,0.0067,0.0075,0.0072,0.0020
953,0.0435,0.0161,0.0180,0.0055,0.0067,0.0075,0.0072,0.0020
954,0.0435,0.0161,0.0180,0.0055,0.0067,0.0075,0.0072,0.0020
955,0.0435,0.0161,0.0180,0.0055,0.0067,0.0075,0.0072,0.0020
956,0.0435,0.0161,0.0180,0.0055,0.0067,0.0075,0.0072,0.0020
957,0.0435,0.0161,0.0180,0.0055,0.0067,0.0075,0.0072,0.0020
958,0.0434,0.0198,0.0213,0.0055,0.0059,0.0116,0.0118,0.0019
959,0.0435,0.0161,0.0180,0.0055,0.0067,0.0075,0.0072,0.0020
960,0.0435,0.0161,0.0180,0.0055,0.0067,0.0075,0.0072,0.0020
961,0.0435,0.0161,0.0180,0.0055,0.0067,0.0075,0.0072,0.0020
962,0.0435,0.0161,0.0180,0.0055,0.0067,0.0075,0.0072,0.0020
963,0.0435,0.0161,0.0180,0.0055,0.0067,0.0075,0.0072,0.0020
964,0.0435,0.0161,0.0180,0.0055,0.0067,0.0075,0.0072,0.0020
965,0.0435,0.0161,0.0180,0.0055,0.0067,0.0075,0.0072,0.0020
966,0.0435,0.0161,0.0180,0.0055,0.0067,0.0075,0.0072,0.0020
967,0.0435,0.0161,0.0180,0.0055,0.0067,0.0075,0.0072,0.0020
968,0.0435,0.0161,0.0180,0.0055,0.0067,0.0075,0.0072,0.0020
969,0.0435,0.0183,0.0203,0.0055,0.0059,0.0100,0.0104,0.0021
970,0.0435,0.0161,0.0180,0.0055,0.0067,0.0075,0.0072,0.0020
971,0.0435,0.0161,0.0180,0.0055,0.0067,0.0075,0.0072,0.0020
972,0.0435,0.0161,0.0180,0.0055,0.0067,0.0075,0.0072,0.0020
973,0.0435,0.0161,0.0180,0.0055,0.0067,0.0075,0.0072,0.0020
974,0.0435,0.0161,0.0180,0.0055,0.0067,0.0075,0.0072,0.0020
975,0.0439,0.0157,0.0196,0.0057,0.0090,0.0063,0.0095,0.0024
976,0.0438,0.0159,0.0194,0.0058,0.0087,0.0066,0.0093,0.0026
977,0.0438,0.0160,0.0193,0.0059,0.0085,0.0070,0.0091,0.0027
978,0.0437,0.0157,0.0185,0.0059,0.0084,0.0065,0.0082,0.0027
979,0.0434,0.0198,0.0213,0.0055,0.0059,0.0116,0.0118,0.0019
980,0.0435,0.0192,0.0209,0.0057,0.0058,0.0114,0.0114,0.0024
981,0.0437,0.0158,0.0183,0.0058,0.0081,0.0066,0.0078,0.0025
982,0.0437,0.0155,0.0177,0.0057,0.0079,0.0059,0.0065,0.0024
983,0.0436,0.0157,0.0179,0.0056,0.0076,0.0064,0.0071,0.0022
984,0.0436,0.0156,0.0177,0.0055,0.0072,0.0063,0.0064,0.0021
985,0.0435,0.0163,0.0183,0.0055,0.0069,0.0076,0.0078,0.0020
986,0.0435,0.0158,0.0177,0.0055,0.0074,0.0065,0.0065,0.0019
987,0.0436,0.0172,0.0186,0.0054,0.0079,0.0090,0.0083,0.0017
988,0.0435,0.0182,0.0191,0.0054,0.0071,0.0104,0.0092,0.0015
989,0.0434,0.0179,0.0194,0.0054,0.0061,0.0097,0.0088,0.0015
990,0.0434,0.0159,0.0176,0.0054,0.0056,0.0069,0.0063,0.0017
991,0.0435,0.0189,0.0199,0.0058,0.0056,0.0111,0.0101,0.0027
992,0.0434,0.0198,0.0213,0.0055,0.0059,0.0116,0.0118,0.0019
993,0.0435,0.0183,0.0203,0.0055,0.0059,0.0100,0.0104,0.0021
994,0.0435,0.0192,0.0209,0.0057,0.0058,0.0114,0.0114,0.0024
995,0.0435,0.0189,0.0199,0.0058,0.0056,0.0111,0.0101,0.0027
996,0.0435,0.0207,0.0210,0.0060,0.0056,0.0131,0.0115,0.0030
997,0.0435,0.0300,0.0295,0.0159,0.0060,0.0205,0.0196,0.0111
998,0.0434,0.0190,0.0197,0.0113,0.0056,0.0111,0.0098,0.0078
999,0.0434,0.0191,0.0195,0.0116,0.0055,0.0112,0.0094,0.0082
1000,0.0434,0.0180,0.0187,0.0054,0.0056,0.0077,0.0081,0.0015
1001,0.0434,0.0180,0.0187,0.0054,0.0056,0.0077,0.0081,0.0015
1002,0.0434,0.0180,0.0187,0.0054,0.0056,0.0077,0.0081,0.0015
1003,0.0434,0.0190,0.0201,0.0054,0.0062,0.0093,0.0097,0.0014
1004,0.0434,0.0190,0.0201,0.0054,0.0062,0.0093,0.0097,0.0014
1005,0.0435,0.0185,0.0188,0.0054,0.0068,0.0086,0.0083,0.0014
1006,0.0435,0.0196,0.0192,0.0054,0.0066,0.0087,0.0081,0.0018
1007,0.0435,0.0204,0.0202,0.0057,0.0064,0.0103,0.0097,0.0023
1008,0.0435,0.0204,0.0195,0.0058,0.0063,0.0097,0.0087,0.0025
1009,0.0435,0.0215,0.0213,0.0057,0.0062,0.0105,0.0112,0.0024
1010,0.0435,0.0225,0.0234,0.0056,0.0061,0.0116,0.0132,0.0023
1011,0.0435,0.0237,0.0238,0.0056,0.0059,0.0124,0.0138,0.0020
1012,0.0435,0.0224,0.0225,0.0058,0.0061,0.0113,0.0125,0.0026
1013,0.0436,0.0239,0.0256,0.0064,0.0064,0.0135,0.0157,0.0036
1014,0.0435,0.0185,0.0188,0.0054,0.0068,0.0086,0.0083,0.0014
1015,0.0435,0.0308,0.0261,0.0179,0.0062,0.0161,0.0140,0.0104
1016,0.0434,0.0283,0.0251,0.0156,0.0059,0.0130,0.0113,0.0091
1017,0.0434,0.0250,0.0237,0.0155,0.0059,0.0115,0.0109,0.0101
1018,0.0434,0.0238,0.0235,0.0161,0.0061,0.0127,0.0126,0.0110
1019,0.0435,0.0244,0.0247,0.0151,0.0063,0.0147,0.0147,0.0104
1020,0.0435,0.0226,0.0230,0.0113,0.0064,0.0124,0.0127,0.0074
1021,0.0435,0.0211,0.0215,0.0086,0.0066,0.0108,0.0111,0.0053
1022,0.0435,0.0193,0.0197,0.0079,0.0067,0.0089,0.0091,0.0049
1023,0.0435,0.0190,0.0195,0.0071,0.0065,0.0082,0.0084,0.0042
1024,0.0434,0.0185,0.0188,0.0056,0.0058,0.0081,0.0078,0.0023
1025,0.0435,0.0196,0.0192,0.0054,0.0066,0.0087,0.0081,0.0018
1026,0.0434,0.0184,0.0190,0.0056,0.0055,0.0073,0.0078,0.0021
1027,0.0434,0.0186,0.0194,0.0058,0.0057,0.0071,0.0077,0.0024
1028,0.0434,0.0190,0.0201,0.0056,0.0060,0.0078,0.0089,0.0022
1029,0.0434,0.0201,0.0213,0.0065,0.0062,0.0098,0.0105,0.0037
1030,0.0434,0.0213,0.0220,0.0078,0.0059,0.0108,0.0109,0.0050
1031,0.0434,0.0226,0.0233,0.0080,0.0054,0.0111,0.0115,0.0050
1032,0.0434,0.0273,0.0281,0.0080,0.0061,0.0134,0.0140,0.0040
1033,0.0435,0.0338,0.0339,0.0111,0.0068,0.0177,0.0181,0.0063
1034,0.0435,0.0362,0.0341,0.0133,0.0067,0.0186,0.0176,0.0081
1035,0.0435,0.0352,0.0325,0.0158,0.0065,0.0197,0.0190,0.0092
1036,0.0435,0.0204,0.0202,0.0057,0.0064,0.0103,0.0097,0.0023
1037,0.0434,0.0180,0.0187,0.0054,0.0056,0.0077,0.0081,0.0015
1038,0.0434,0.0180,0.0187,0.0054,0.0056,0.0077,0.0081,0.0015
1039,0.0434,0.0180,0.0187,0.0054,0.0056,0.0077,0.0081,0.0015
1040,0.0434,0.0180,0.0187,0.0054,0.0056,0.0077,0.0081,0.0015
1041,0.0434,0.0180,0.0187,0.0054,0.0056,0.0077,0.0081,0.0015
1042,0.0434,0.0180,0.0187,0.0054,0.0056,0.0077,0.0081,0.0015
1043,0.0434,0.0180,0.0187,0.0054,0.0056,0.0077,0.0081,0.0015
1044,0.0434,0.0180,0.0187,0.0054,0.0056,0.0077,0.0081,0.0015
1045,0.0434,0.0180,0.0187,0.0054,0.0056,0.0077,0.0081,0.0015
1046,0.0434,0.0180,0.0187,0.0054,0.0056,0.0077,0.0081,0.0015
1047,0.0435,0.0204,0.0195,0.0058,0.0063,0.0097,0.0087,0.0025
1048,0.0434,0.0180,0.0187,0.0054,0.0056,0.0077,0.0081,0.0015
1049,0.0434,0.0180,0.0187,0.0054,0.0056,0.0077,0.0081,0.0015
1050,0.0434,0.0180,0.0187,0.0054,0.0056,0.0077,0.0081,0.0015
1051,0.0434,0.0180,0.0187,0.0054,0.0056,0.0077,0.0081,0.0015
1052,0.0434,0.0180,0.0187,0.0054,0.0056,0.0077,0.0081,0.0015
1053,0.0434,0.0180,0.0187,0.0054,0.0056,0.0077,0.0081,0.0015
1054,0.0434,0.0180,0.0187,0.0054,0.0056,0.0077,0.0081,0.0015
1055,0.0434,0.0180,0.0187,0.0054,0.0056,0.0077,0.0081,0.0015
1056,0.0434,0.0180,0.0187,0.0054,0.0056,0.0077,0.0081,0.0015
1057,0.0434,0.0180,0.0187,0.0054,0.0056,0.0077,0.0081,0.0015
1058,0.0435,0.0215,0.0213,0.0057,0.0062,0.0105,0.0112,0.0024
1059,0.0434,0.0180,0.0187,0.0054,0.0056,0.0077,0.0081,0.0015
1060,0.0434,0.0180,0.0187,0.0054,0.0056,0.0077,0.0081,0.0015
1061,0.0434,0.0180,0.0187,0.0054,0.0056,0.0077,0.0081,0.0015
1062,0.0434,0.0180,0.0187,0.0054,0.0056,0.0077,0.0081,0.0015
1063,0.0434,0.0180,0.0187,0.0054,0.0056,0.0077,0.0081,0.0015
1064,0.0434,0.0180,0.0187,0.0054,0.0056,0.0077,0.0081,0.0015
1065,0.0434,0.0180,0.0187,0.0054,0.0056,0.0077,0.0081,0.0015
1066,0.0434,0.0180,0.0187,0.0054,0.0056,0.0077,0.0081,0.0015
1067,0.0434,0.0180,0.0187,0.0054,0.0056,0.0077,0.0081,0.0015
1068,0.0434,0.0180,0.0187,0.0054,0.0056,0.0077,0.0081,0.0015
1069,0.0435,0.0225,0.0234,0.0056,0.0061,0.0116,0.0132,0.0023
1070,0.0434,0.0180,0.0187,0.0054,0.0056,0.0077,0.0081,0.0015
1071,0.0434,0.0180,0.0187,0.0054,0.0056,0.0077,0.0081,0.0015
1072,0.0434,0.0180,0.0187,0.0054,0.0056,0.0077,0.0081,0.0015
1073,0.0434,0.0180,0.0187,0.0054,0.0056,0.0077,0.0081,0.0015
1074,0.0434,0.0180,0.0187,0.0054,0.0056,0.0077,0.0081,0.0015
1075,0.0437,0.0167,0.0231,0.0065,0.0084,0.0065,0.0128,0.0033
1076,0.0437,0.0169,0.0213,0.0059,0.0081,0.0065,0.0109,0.0027
1077,0.0436,0.0169,0.0201,0.0056,0.0079,0.0068,0.0095,0.0023
1078,0.0436,0.0172,0.0193,0.0055,0.0075,0.0072,0.0085,0.0019
1079,0.0435,0.0215,0.0213,0.0057,0.0062,0.0105,0.0112,0.0024
1080,0.0435,0.0237,0.0238,0.0056,0.0059,0.0124,0.0138,0.0020
1081,0.0435,0.0171,0.0183,0.0055,0.0069,0.0065,0.0069,0.0021
1082,0.0435,0.0175,0.0183,0.0056,0.0066,0.0075,0.0068,0.0022
1083,0.0434,0.0178,0.0188,0.0056,0.0063,0.0078,0.0080,0.0022
1084,0.0434,0.0178,0.0186,0.0055,0.0059,0.0072,0.0074,0.0020
1085,0.0434,0.0181,0.0188,0.0054,0.0056,0.0077,0.0078,0.0018
1086,0.0434,0.0190,0.0201,0.0054,0.0062,0.0093,0.0097,0.0014
1087,0.0435,0.0185,0.0188,0.0054,0.0068,0.0086,0.0083,0.0014
1088,0.0435,0.0196,0.0192,0.0054,0.0066,0.0087,0.0081,0.0018
1089,0.0435,0.0204,0.0202,0.0057,0.0064,0.0103,0.0097,0.0023
1090,0.0435,0.0204,0.0195,0.0058,0.0063,0.0097,0.0087,0.0025
1091,0.0435,0.0224,0.0225,0.0058,0.0061,0.0113,0.0125,0.0026
1092,0.0435,0.0215,0.0213,0.0057,0.0062,0.0105,0.0112,0.0024
1093,0.0435,0.0225,0.0234,0.0056,0.0061,0.0116,0.0132,0.0023
1094,0.0435,0.0237,0.0238,0.0056,0.0059,0.0124,0.0138,0.0020
1095,0.0435,0.0224,0.0225,0.0058,0.0061,0.0113,0.0125,0.0026
1096,0.0436,0.0239,0.0256,0.0064,0.0064,0.0135,0.0157,0.0036
1097,0.0435,0.0308,0.0261,0.0179,0.0062,0.0161,0.0140,0.0104
1098,0.0434,0.0283,0.0251,0.0156,0.0059,0.0130,0.0113,0.0091
1099,0.0434,0.0250,0.0237,0.0155,0.0059,0.0115,0.0109,0.0101
1100,0.0434,0.0174,0.0185,0.0054,0.0053,0.0074,0.0077,0.0017
1101,0.0434,0.0174,0.0185,0.0054,0.0053,0.0074,0.0077,0.0017
1102,0.0434,0.0174,0.0185,0.0054,0.0053,0.0074,0.0077,0.0017
1103,0.0434,0.0177,0.0186,0.0054,0.0060,0.0081,0.0079,0.0016
1104,0.0434,0.0177,0.0186,0.0054,0.0060,0.0081,0.0079,0.0016
1105,0.0435,0.0173,0.0182,0.0054,0.0067,0.0075,0.0071,0.0016
1106,0.0435,0.0183,0.0190,0.0055,0.0065,0.0080,0.0084,0.0020
1107,0.0434,0.0195,0.0200,0.0058,0.0063,0.0098,0.0096,0.0024
1108,0.0434,0.0188,0.0184,0.0059,0.0061,0.0081,0.0071,0.0026
1109,0.0435,0.0201,0.0203,0.0059,0.0060,0.0101,0.0104,0.0026
1110,0.0435,0.0206,0.0213,0.0058,0.0059,0.0104,0.0113,0.0026
1111,0.0435,0.0218,0.0223,0.0057,0.0058,0.0117,0.0124,0.0024
1112,0.0435,0.0209,0.0214,0.0057,0.0060,0.0111,0.0117,0.0021
1113,0.0436,0.0230,0.0250,0.0059,0.0063,0.0138,0.0150,0.0028
1114,0.0435,0.0173,0.0182,0.0054,0.0067,0.0075,0.0071,0.0016
1115,0.0435,0.0260,0.0244,0.0156,0.0062,0.0133,0.0135,0.0095
1116,0.0434,0.0248,0.0231,0.0136,0.0059,0.0117,0.0104,0.0082
1117,0.0434,0.0227,0.0223,0.0142,0.0059,0.0110,0.0104,0.0095
1118,0.0434,0.0217,0.0219,0.0146,0.0059,0.0116,0.0114,0.0101
1119,0.0434,0.0238,0.0245,0.0146,0.0061,0.0147,0.0148,0.0101
1120,0.0434,0.0225,0.0238,0.0112,0.0061,0.0128,0.0134,0.0073
1121,0.0434,0.0194,0.0205,0.0083,0.0063,0.0099,0.0103,0.0051
1122,0.0434,0.0183,0.0190,0.0079,0.0064,0.0080,0.0080,0.0049
1123,0.0434,0.0182,0.0191,0.0073,0.0061,0.0079,0.0080,0.0044
1124,0.0434,0.0178,0.0186,0.0057,0.0055,0.0078,0.0078,0.0025
1125,0.0435,0.0183,0.0190,0.0055,0.0065,0.0080,0.0084,0.0020
1126,0.0434,0.0176,0.0186,0.0056,0.0052,0.0072,0.0075,0.0022
1127,0.0434,0.0176,0.0187,0.0057,0.0054,0.0066,0.0073,0.0024
1128,0.0434,0.0175,0.0188,0.0056,0.0058,0.0068,0.0077,0.0022
1129,0.0434,0.0185,0.0198,0.0065,0.0059,0.0086,0.0093,0.0036
1130,0.0434,0.0202,0.0212,0.0081,0.0056,0.0108,0.0107,0.0054
1131,0.0434,0.0207,0.0215,0.0083,0.0054,0.0104,0.0104,0.0054
1132,0.0434,0.0243,0.0257,0.0076,0.0063,0.0124,0.0132,0.0038
1133,0.0435,0.0305,0.0310,0.0100,0.0068,0.0167,0.0172,0.0056
1134,0.0435,0.0313,0.0302,0.0114,0.0066,0.0168,0.0161,0.0068
1135,0.0434,0.0308,0.0292,0.0148,0.0062,0.0178,0.0172,0.0088
1136,0.0434,0.0195,0.0200,0.0058,0.0063,0.0098,0.0096,0.0024
1137,0.0434,0.0174,0.0185,0.0054,0.0053,0.0074,0.0077,0.0017
1138,0.0434,0.0174,0.0185,0.0054,0.0053,0.0074,0.0077,0.0017
1139,0.0434,0.0174,0.0185,0.0054,0.0053,0.0074,0.0077,0.0017
1140,0.0434,0.0174,0.0185,0.0054,0.0053,0.0074,0.0077,0.0017
1141,0.0434,0.0174,0.0185,0.0054,0.0053,0.0074,0.0077,0.0017
1142,0.0434,0.0174,0.0185,0.0054,0.0053,0.0074,0.0077,0.0017
1143,0.0434,0.0174,0.0185,0.0054,0.0053,0.0074,0.0077,0.0017
1144,0.0434,0.0174,0.0185,0.0054,0.0053,0.0074,0.0077,0.0017
1145,0.0434,0.0174,0.0185,0.0054,0.0053,0.0074,0.0077,0.0017
1146,0.0434,0.0174,0.0185,0.0054,0.0053,0.0074,0.0077,0.0017
1147,0.0434,0.0188,0.0184,0.0059,0.0061,0.0081,0.0071,0.0026
1148,0.0434,0.0174,0.0185,0.0054,0.0053,0.0074,0.0077,0.0017
1149,0.0434,0.0174,0.0185,0.0054,0.0053,0.0074,0.0077,0.0017
1150,0.0434,0.0174,0.0185,0.0054,0.0053,0.0074,0.0077,0.0017
1151,0.0434,0.0174,0.0185,0.0054,0.0053,0.0074,0.0077,0.0017
1152,0.0434,0.0174,0.0185,0.0054,0.0053,0.0074,0.0077,0.0017
1153,0.0434,0.0174,0.0185,0.0054,0.0053,0.0074,0.0077,0.0017
1154,0.0434,0.0174,0.0185,0.0054,0.0053,0.0074,0.0077,0.0017
1155,0.0434,0.0174,0.0185,0.0054,0.0053,0.0074,0.0077,0.0017
1156,0.0434,0.0174,0.0185,0.0054,0.0053,0.0074,0.0077,0.0017
1157,0.0434,0.0174,0.0185,0.0054,0.0053,0.0074,0.0077,0.0017
1158,0.0435,0.0201,0.0203,0.0059,0.0060,0.0101,0.0104,0.0026
1159,0.0434,0.0174,0.0185,0.0054,0.0053,0.0074,0.0077,0.0017
1160,0.0434,0.0174,0.0185,0.0054,0.0053,0.0074,0.0077,0.0017
1161,0.0434,0.0174,0.0185,0.0054,0.0053,0.0074,0.0077,0.0017
1162,0.0434,0.0174,0.0185,0.0054,0.0053,0.0074,0.0077,0.0017
1163,0.0434,0.0174,0.0185,0.0054,0.0053,0.0074,0.0077,0.0017
1164,0.0434,0.0174,0.0185,0.0054,0.0053,0.0074,0.0077,0.0017
1165,0.0434,0.0174,0.0185,0.0054,0.0053,0.0074,0.0077,0.0017
1166,0.0434,0.0174,0.0185,0.0054,0.0053,0.0074,0.0077,0.0017
1167,0.0434,0.0174,0.0185,0.0054,0.0053,0.0074,0.0077,0.0017
1168,0.0434,0.0174,0.0185,0.0054,0.0053,0.0074,0.0077,0.0017
1169,0.0435,0.0206,0.0213,0.0058,0.0059,0.0104,0.0113,0.0026
1170,0.0434,0.0174,0.0185,0.0054,0.0053,0.0074,0.0077,0.0017
1171,0.0434,0.0174,0.0185,0.0054,0.0053,0.0074,0.0077,0.0017
1172,0.0434,0.0174,0.0185,0.0054,0.0053,0.0074,0.0077,0.0017
1173,0.0434,0.0174,0.0185,0.0054,0.0053,0.0074,0.0077,0.0017
1174,0.0434,0.0174,0.0185,0.0054,0.0053,0.0074,0.0077,0.0017
1175,0.0437,0.0163,0.0207,0.0059,0.0082,0.0061,0.0106,0.0026
1176,0.0436,0.0165,0.0197,0.0056,0.0079,0.0064,0.0093,0.0021
1177,0.0436,0.0165,0.0186,0.0055,0.0076,0.0066,0.0076,0.0018
1178,0.0435,0.0168,0.0184,0.0055,0.0072,0.0072,0.0068,0.0020
1179,0.0435,0.0201,0.0203,0.0059,0.0060,0.0101,0.0104,0.0026
1180,0.0435,0.0218,0.0223,0.0057,0.0058,0.0117,0.0124,0.0024
1181,0.0435,0.0168,0.0181,0.0057,0.0065,0.0067,0.0063,0.0024
1182,0.0434,0.0170,0.0182,0.0058,0.0062,0.0075,0.0072,0.0025
1183,0.0434,0.0168,0.0182,0.0057,0.0059,0.0068,0.0070,0.0024
1184,0.0434,0.0170,0.0183,0.0056,0.0055,0.0071,0.0072,0.0022
1185,0.0434,0.0175,0.0188,0.0055,0.0053,0.0081,0.0084,0.0020
1186,0.0434,0.0177,0.0186,0.0054,0.0060,0.0081,0.0079,0.0016
1187,0.0435,0.0173,0.0182,0.0054,0.0067,0.0075,0.0071,0.0016
1188,0.0435,0.0183,0.0190,0.0055,0.0065,0.0080,0.0084,0.0020
1189,0.0434,0.0195,0.0200,0.0058,0.0063,0.0098,0.0096,0.0024
1190,0.0434,0.0188,0.0184,0.0059,0.0061,0.0081,0.0071,0.0026
1191,0.0435,0.0209,0.0214,0.0057,0.0060,0.0111,0.0117,0.0021
1192,0.0435,0.0201,0.0203,0.0059,0.0060,0.0101,0.0104,0.0026
1193,0.0435,0.0206,0.0213,0.0058,0.0059,0.0104,0.0113,0.0026
1194,0.0435,0.0218,0.0223,0.0057,0.0058,0.0117,0.0124,0.0024
1195,0.0435,0.0209,0.0214,0.0057,0.0060,0.0111,0.0117,0.0021
1196,0.0436,0.0230,0.0250,0.0059,0.0063,0.0138,0.0150,0.0028
1197,0.0435,0.0260,0.0244,0.0156,0.0062,0.0133,0.0135,0.0095
1198,0.0434,0.0248,0.0231,0.0136,0.0059,0.0117,0.0104,0.0082
1199,0.0434,0.0227,0.0223,0.0142,0.0059,0.0110,0.0104,0.0095
1200,0.0434,0.0162,0.0179,0.0054,0.0055,0.0068,0.0068,0.0018
1201,0.0434,0.0162,0.0179,0.0054,0.0055,0.0068,0.0068,0.0018
1202,0.0434,0.0162,0.0179,0.0054,0.0055,0.0068,0.0068,0.0018
1203,0.0434,0.0165,0.0180,0.0054,0.0062,0.0075,0.0071,0.0017
1204,0.0434,0.0165,0.0180,0.0054,0.0062,0.0075,0.0071,0.0017
1205,0.0435,0.0165,0.0180,0.0055,0.0071,0.0076,0.0072,0.0018
1206,0.0435,0.0169,0.0185,0.0056,0.0068,0.0077,0.0078,0.0021
1207,0.0434,0.0179,0.0203,0.0057,0.0061,0.0091,0.0108,0.0024
1208,0.0434,0.0169,0.0178,0.0059,0.0058,0.0073,0.0063,0.0026
1209,0.0434,0.0175,0.0190,0.0060,0.0057,0.0086,0.0088,0.0027
1210,0.0435,0.0178,0.0195,0.0059,0.0057,0.0090,0.0096,0.0028
1211,0.0435,0.0193,0.0210,0.0059,0.0057,0.0112,0.0116,0.0029
1212,0.0435,0.0195,0.0207,0.0059,0.0058,0.0108,0.0106,0.0029
1213,0.0435,0.0226,0.0239,0.0060,0.0060,0.0143,0.0141,0.0029
1214,0.0435,0.0165,0.0180,0.0055,0.0071,0.0076,0.0072,0.0018
1215,0.0435,0.0216,0.0230,0.0132,0.0062,0.0129,0.0135,0.0088
1216,0.0434,0.0187,0.0195,0.0110,0.0058,0.0092,0.0085,0.0074
1217,0.0434,0.0187,0.0197,0.0122,0.0058,0.0095,0.0087,0.0084
1218,0.0434,0.0206,0.0213,0.0138,0.0059,0.0124,0.0116,0.0096
1219,0.0434,0.0213,0.0230,0.0130,0.0058,0.0133,0.0135,0.0090
1220,0.0434,0.0207,0.0229,0.0103,0.0057,0.0120,0.0128,0.0067
1221,0.0434,0.0174,0.0193,0.0077,0.0058,0.0085,0.0091,0.0047
1222,0.0434,0.0169,0.0185,0.0076,0.0058,0.0070,0.0072,0.0047
1223,0.0434,0.0171,0.0189,0.0073,0.0055,0.0073,0.0080,0.0044
1224,0.0434,0.0168,0.0186,0.0058,0.0052,0.0076,0.0078,0.0026
1225,0.0435,0.0169,0.0185,0.0056,0.0068,0.0077,0.0078,0.0021
1226,0.0434,0.0160,0.0177,0.0057,0.0053,0.0061,0.0062,0.0023
1227,0.0434,0.0161,0.0180,0.0057,0.0051,0.0060,0.0065,0.0023
1228,0.0434,0.0162,0.0181,0.0056,0.0052,0.0063,0.0071,0.0021
1229,0.0434,0.0173,0.0192,0.0067,0.0054,0.0088,0.0092,0.0039
1230,0.0434,0.0184,0.0197,0.0082,0.0052,0.0101,0.0097,0.0054
1231,0.0434,0.0182,0.0194,0.0086,0.0057,0.0095,0.0091,0.0056
1232,0.0434,0.0186,0.0207,0.0071,0.0065,0.0092,0.0102,0.0037
1233,0.0435,0.0226,0.0244,0.0080,0.0068,0.0130,0.0137,0.0042
1234,0.0434,0.0219,0.0227,0.0089,0.0065,0.0118,0.0117,0.0051
1235,0.0434,0.0250,0.0257,0.0161,0.0058,0.0156,0.0154,0.0107
1236,0.0434,0.0179,0.0203,0.0057,0.0061,0.0091,0.0108,0.0024
1237,0.0434,0.0162,0.0179,0.0054,0.0055,0.0068,0.0068,0.0018
1238,0.0434,0.0162,0.0179,0.0054,0.0055,0.0068,0.0068,0.0018
1239,0.0434,0.0162,0.0179,0.0054,0.0055,0.0068,0.0068,0.0018
1240,0.0434,0.0162,0.0179,0.0054,0.0055,0.0068,0.0068,0.0018
1241,0.0434,0.0162,0.0179,0.0054,0.0055,0.0068,0.0068,0.0018
1242,0.0434,0.0162,0.0179,0.0054,0.0055,0.0068,0.0068,0.0018
1243,0.0434,0.0162,0.0179,0.0054,0.0055,0.0068,0.0068,0.0018
1244,0.0434,0.0162,0.0179,0.0054,0.0055,0.0068,0.0068,0.0018
1245,0.0434,0.0162,0.0179,0.0054,0.0055,0.0068,0.0068,0.0018
1246,0.0434,0.0162,0.0179,0.0054,0.0055,0.0068,0.0068,0.0018
1247,0.0434,0.0169,0.0178,0.0059,0.0058,0.0073,0.0063,0.0026
1248,0.0434,0.0162,0.0179,0.0054,0.0055,0.0068,0.0068,0.0018
1249,0.0434,0.0162,0.0179,0.0054,0.0055,0.0068,0.0068,0.0018
1250,0.0434,0.0162,0.0179,0.0054,0.0055,0.0068,0.0068,0.0018
1251,0.0434,0.0162,0.0179,0.0054,0.0055,0.0068,0.0068,0.0018
1252,0.0434,0.0162,0.0179,0.0054,0.0055,0.0068,0.0068,0.0018
1253,0.0434,0.0162,0.0179,0.0054,0.0055,0.0068,0.0068,0.0018
1254,0.0434,0.0162,0.0179,0.0054,0.0055,0.0068,0.0068,0.0018
1255,0.0434,0.0162,0.0179,0.0054,0.0055,0.0068,0.0068,0.0018
1256,0.0434,0.0162,0.0179,0.0054,0.0055,0.0068,0.0068,0.0018
1257,0.0434,0.0162,0.0179,0.0054,0.0055,0.0068,0.0068,0.0018
1258,0.0434,0.0175,0.0190,0.0060,0.0057,0.0086,0.0088,0.0027
1259,0.0434,0.0162,0.0179,0.0054,0.0055,0.0068,0.0068,0.0018
1260,0.0434,0.0162,0.0179,0.0054,0.0055,0.0068,0.0068,0.0018
1261,0.0434,0.0162,0.0179,0.0054,0.0055,0.0068,0.0068,0.0018
1262,0.0434,0.0162,0.0179,0.0054,0.0055,0.0068,0.0068,0.0018
1263,0.0434,0.0162,0.0179,0.0054,0.0055,0.0068,0.0068,0.0018
1264,0.0434,0.0162,0.0179,0.0054,0.0055,0.0068,0.0068,0.0018
1265,0.0434,0.0162,0.0179,0.0054,0.0055,0.0068,0.0068,0.0018
1266,0.0434,0.0162,0.0179,0.0054,0.0055,0.0068,0.0068,0.0018
1267,0.0434,0.0162,0.0179,0.0054,0.0055,0.0068,0.0068,0.0018
1268,0.0434,0.0162,0.0179,0.0054,0.0055,0.0068,0.0068,0.0018
1269,0.0435,0.0178,0.0195,0.0059,0.0057,0.0090,0.0096,0.0028
1270,0.0434,0.0162,0.0179,0.0054,0.0055,0.0068,0.0068,0.0018
1271,0.0434,0.0162,0.0179,0.0054,0.0055,0.0068,0.0068,0.0018
1272,0.0434,0.0162,0.0179,0.0054,0.0055,0.0068,0.0068,0.0018
1273,0.0434,0.0162,0.0179,0.0054,0.0055,0.0068,0.0068,0.0018
1274,0.0434,0.0162,0.0179,0.0054,0.0055,0.0068,0.0068,0.0018
1275,0.0437,0.0158,0.0181,0.0056,0.0078,0.0058,0.0068,0.0020
1276,0.0436,0.0160,0.0179,0.0056,0.0073,0.0064,0.0067,0.0022
1277,0.0435,0.0160,0.0181,0.0057,0.0069,0.0066,0.0071,0.0025
1278,0.0435,0.0159,0.0179,0.0059,0.0064,0.0064,0.0068,0.0027
1279,0.0434,0.0175,0.0190,0.0060,0.0057,0.0086,0.0088,0.0027
1280,0.0435,0.0193,0.0210,0.0059,0.0057,0.0112,0.0116,0.0029
1281,0.0434,0.0162,0.0180,0.0060,0.0056,0.0067,0.0071,0.0028
1282,0.0434,0.0159,0.0180,0.0060,0.0054,0.0065,0.0071,0.0027
1283,0.0434,0.0161,0.0181,0.0058,0.0054,0.0069,0.0073,0.0025
1284,0.0434,0.0160,0.0178,0.0057,0.0055,0.0064,0.0065,0.0022
1285,0.0434,0.0163,0.0182,0.0055,0.0054,0.0071,0.0073,0.0020
1286,0.0434,0.0165,0.0180,0.0054,0.0062,0.0075,0.0071,0.0017
1287,0.0435,0.0165,0.0180,0.0055,0.0071,0.0076,0.0072,0.0018
1288,0.0435,0.0169,0.0185,0.0056,0.0068,0.0077,0.0078,0.0021
1289,0.0434,0.0179,0.0203,0.0057,0.0061,0.0091,0.0108,0.0024
1290,0.0434,0.0169,0.0178,0.0059,0.0058,0.0073,0.0063,0.0026
1291,0.0435,0.0195,0.0207,0.0059,0.0058,0.0108,0.0106,0.0029
1292,0.0434,0.0175,0.0190,0.0060,0.0057,0.0086,0.0088,0.0027
1293,0.0435,0.0178,0.0195,0.0059,0.0057,0.0090,0.0096,0.0028
1294,0.0435,0.0193,0.0210,0.0059,0.0057,0.0112,0.0116,0.0029
1295,0.0435,0.0195,0.0207,0.0059,0.0058,0.0108,0.0106,0.0029
1296,0.0435,0.0226,0.0239,0.0060,0.0060,0.0143,0.0141,0.0029
1297,0.0435,0.0216,0.0230,0.0132,0.0062,0.0129,0.0135,0.0088
1298,0.0434,0.0187,0.0195,0.0110,0.0058,0.0092,0.0085,0.0074
1299,0.0434,0.0187,0.0197,0.0122,0.0058,0.0095,0.0087,0.0084
1300,0.0434,0.0160,0.0180,0.0054,0.0057,0.0072,0.0072,0.0017
1301,0.0434,0.0160,0.0180,0.0054,0.0057,0.0072,0.0072,0.0017
1302,0.0434,0.0160,0.0180,0.0054,0.0057,0.0072,0.0072,0.0017
1303,0.0434,0.0160,0.0179,0.0054,0.0066,0.0070,0.0069,0.0016
1304,0.0434,0.0160,0.0179,0.0054,0.0066,0.0070,0.0069,0.0016
1305,0.0436,0.0160,0.0179,0.0054,0.0075,0.0070,0.0068,0.0017
1306,0.0435,0.0164,0.0181,0.0055,0.0070,0.0077,0.0072,0.0019
1307,0.0434,0.0171,0.0196,0.0055,0.0062,0.0082,0.0094,0.0021
1308,0.0434,0.0157,0.0175,0.0056,0.0056,0.0063,0.0059,0.0022
1309,0.0434,0.0166,0.0189,0.0057,0.0056,0.0080,0.0087,0.0024
1310,0.0435,0.0179,0.0202,0.0058,0.0056,0.0096,0.0105,0.0027
1311,0.0435,0.0189,0.0209,0.0060,0.0056,0.0109,0.0115,0.0030
1312,0.0435,0.0195,0.0211,0.0061,0.0056,0.0116,0.0116,0.0032
1313,0.0435,0.0213,0.0218,0.0063,0.0058,0.0137,0.0125,0.0034
1314,0.0436,0.0160,0.0179,0.0054,0.0075,0.0070,0.0068,0.0017
1315,0.0435,0.0244,0.0248,0.0151,0.0063,0.0157,0.0153,0.0103
1316,0.0434,0.0173,0.0186,0.0115,0.0059,0.0091,0.0079,0.0078
1317,0.0434,0.0175,0.0188,0.0124,0.0058,0.0091,0.0079,0.0087
1318,0.0434,0.0212,0.0219,0.0144,0.0059,0.0130,0.0121,0.0103
1319,0.0434,0.0217,0.0237,0.0130,0.0057,0.0136,0.0140,0.0092
1320,0.0434,0.0182,0.0213,0.0094,0.0054,0.0099,0.0113,0.0062
1321,0.0434,0.0161,0.0184,0.0071,0.0056,0.0069,0.0078,0.0042
1322,0.0434,0.0166,0.0188,0.0075,0.0055,0.0074,0.0081,0.0047
1323,0.0434,0.0167,0.0186,0.0074,0.0053,0.0071,0.0073,0.0045
1324,0.0434,0.0164,0.0185,0.0057,0.0055,0.0074,0.0080,0.0025
1325,0.0435,0.0164,0.0181,0.0055,0.0070,0.0077,0.0072,0.0019
1326,0.0434,0.0155,0.0175,0.0055,0.0056,0.0061,0.0059,0.0021
1327,0.0434,0.0158,0.0181,0.0055,0.0054,0.0066,0.0075,0.0020
1328,0.0434,0.0158,0.0181,0.0056,0.0053,0.0066,0.0074,0.0021
1329,0.0434,0.0174,0.0196,0.0068,0.0053,0.0092,0.0097,0.0041
1330,0.0434,0.0195,0.0214,0.0088,0.0054,0.0114,0.0115,0.0060
1331,0.0434,0.0194,0.0206,0.0095,0.0058,0.0114,0.0110,0.0065
1332,0.0434,0.0171,0.0187,0.0080,0.0064,0.0088,0.0083,0.0048
1333,0.0435,0.0177,0.0198,0.0078,0.0067,0.0085,0.0088,0.0045
1334,0.0434,0.0184,0.0199,0.0097,0.0063,0.0093,0.0090,0.0063
1335,0.0434,0.0287,0.0289,0.0200,0.0055,0.0192,0.0187,0.0138
1336,0.0434,0.0171,0.0196,0.0055,0.0062,0.0082,0.0094,0.0021
1337,0.0434,0.0160,0.0180,0.0054,0.0057,0.0072,0.0072,0.0017
1338,0.0434,0.0160,0.0180,0.0054,0.0057,0.0072,0.0072,0.0017
1339,0.0434,0.0160,0.0180,0.0054,0.0057,0.0072,0.0072,0.0017
1340,0.0434,0.0160,0.0180,0.0054,0.0057,0.0072,0.0072,0.0017
1341,0.0434,0.0160,0.0180,0.0054,0.0057,0.0072,0.0072,0.0017
1342,0.0434,0.0160,0.0180,0.0054,0.0057,0.0072,0.0072,0.0017
1343,0.0434,0.0160,0.0180,0.0054,0.0057,0.0072,0.0072,0.0017
1344,0.0434,0.0160,0.0180,0.0054,0.0057,0.0072,0.0072,0.0017
1345,0.0434,0.0160,0.0180,0.0054,0.0057,0.0072,0.0072,0.0017
1346,0.0434,0.0160,0.0180,0.0054,0.0057,0.0072,0.0072,0.0017
1347,0.0434,0.0157,0.0175,0.0056,0.0056,0.0063,0.0059,0.0022
1348,0.0434,0.0160,0.0180,0.0054,0.0057,0.0072,0.0072,0.0017
1349,0.0434,0.0160,0.0180,0.0054,0.0057,0.0072,0.0072,0.0017
1350,0.0434,0.0160,0.0180,0.0054,0.0057,0.0072,0.0072,0.0017
1351,0.0434,0.0160,0.0180,0.0054,0.0057,0.0072,0.0072,0.0017
1352,0.0434,0.0160,0.0180,0.0054,0.0057,0.0072,0.0072,0.0017
1353,0.0434,0.0160,0.0180,0.0054,0.0057,0.0072,0.0072,0.0017
1354,0.0434,0.0160,0.0180,0.0054,0.0057,0.0072,0.0072,0.0017
1355,0.0434,0.0160,0.0180,0.0054,0.0057,0.0072,0.0072,0.0017
1356,0.0434,0.0160,0.0180,0.0054,0.0057,0.0072,0.0072,0.0017
1357,0.0434,0.0160,0.0180,0.0054,0.0057,0.0072,0.0072,0.0017
1358,0.0434,0.0166,0.0189,0.0057,0.0056,0.0080,0.0087,0.0024
1359,0.0434,0.0160,0.0180,0.0054,0.0057,0.0072,0.0072,0.0017
1360,0.0434,0.0160,0.0180,0.0054,0.0057,0.0072,0.0072,0.0017
1361,0.0434,0.0160,0.0180,0.0054,0.0057,0.0072,0.0072,0.0017
1362,0.0434,0.0160,0.0180,0.0054,0.0057,0.0072,0.0072,0.0017
1363,0.0434,0.0160,0.0180,0.0054,0.0057,0.0072,0.0072,0.0017
1364,0.0434,0.0160,0.0180,0.0054,0.0057,0.0072,0.0072,0.0017
1365,0.0434,0.0160,0.0180,0.0054,0.0057,0.0072,0.0072,0.0017
1366,0.0434,0.0160,0.0180,0.0054,0.0057,0.0072,0.0072,0.0017
1367,0.0434,0.0160,0.0180,0.0054,0.0057,0.0072,0.0072,0.0017
1368,0.0434,0.0160,0.0180,0.0054,0.0057,0.0072,0.0072,0.0017
1369,0.0435,0.0179,0.0202,0.0058,0.0056,0.0096,0.0105,0.0027
1370,0.0434,0.0160,0.0180,0.0054,0.0057,0.0072,0.0072,0.0017
1371,0.0434,0.0160,0.0180,0.0054,0.0057,0.0072,0.0072,0.0017
1372,0.0434,0.0160,0.0180,0.0054,0.0057,0.0072,0.0072,0.0017
1373,0.0434,0.0160,0.0180,0.0054,0.0057,0.0072,0.0072,0.0017
1374,0.0434,0.0160,0.0180,0.0054,0.0057,0.0072,0.0072,0.0017
1375,0.0437,0.0159,0.0199,0.0058,0.0075,0.0066,0.0097,0.0027
1376,0.0436,0.0157,0.0187,0.0059,0.0069,0.0060,0.0083,0.0028
1377,0.0435,0.0160,0.0194,0.0060,0.0065,0.0068,0.0091,0.0029
1378,0.0435,0.0157,0.0184,0.0061,0.0061,0.0062,0.0079,0.0030
1379,0.0434,0.0166,0.0189,0.0057,0.0056,0.0080,0.0087,0.0024
1380,0.0435,0.0189,0.0209,0.0060,0.0056,0.0109,0.0115,0.0030
1381,0.0434,0.0157,0.0183,0.0060,0.0058,0.0062,0.0077,0.0029
1382,0.0434,0.0159,0.0185,0.0059,0.0059,0.0066,0.0079,0.0027
1383,0.0434,0.0162,0.0190,0.0058,0.0059,0.0076,0.0091,0.0024
1384,0.0434,0.0162,0.0187,0.0056,0.0058,0.0076,0.0086,0.0021
1385,0.0434,0.0163,0.0186,0.0055,0.0057,0.0077,0.0083,0.0019
1386,0.0434,0.0160,0.0179,0.0054,0.0066,0.0070,0.0069,0.0016
1387,0.0436,0.0160,0.0179,0.0054,0.0075,0.0070,0.0068,0.0017
1388,0.0435,0.0164,0.0181,0.0055,0.0070,0.0077,0.0072,0.0019
1389,0.0434,0.0171,0.0196,0.0055,0.0062,0.0082,0.0094,0.0021
1390,0.0434,0.0157,0.0175,0.0056,0.0056,0.0063,0.0059,0.0022
1391,0.0435,0.0195,0.0211,0.0061,0.0056,0.0116,0.0116,0.0032
1392,0.0434,0.0166,0.0189,0.0057,0.0056,0.0080,0.0087,0.0024
1393,0.0435,0.0179,0.0202,0.0058,0.0056,0.0096,0.0105,0.0027
1394,0.0435,0.0189,0.0209,0.0060,0.0056,0.0109,0.0115,0.0030
1395,0.0435,0.0195,0.0211,0.0061,0.0056,0.0116,0.0116,0.0032
1396,0.0435,0.0213,0.0218,0.0063,0.0058,0.0137,0.0125,0.0034
1397,0.0435,0.0244,0.0248,0.0151,0.0063,0.0157,0.0153,0.0103
1398,0.0434,0.0173,0.0186,0.0115,0.0059,0.0091,0.0079,0.0078
1399,0.0434,0.0175,0.0188,0.0124,0.0058,0.0091,0.0079,0.0087
1400,0.0434,0.0160,0.0181,0.0054,0.0058,0.0073,0.0076,0.0016
1401,0.0434,0.0160,0.0181,0.0054,0.0058,0.0073,0.0076,0.0016
1402,0.0434,0.0160,0.0181,0.0054,0.0058,0.0073,0.0076,0.0016
1403,0.0435,0.0156,0.0176,0.0054,0.0067,0.0061,0.0064,0.0015
1404,0.0435,0.0156,0.0176,0.0054,0.0067,0.0061,0.0064,0.0015
1405,0.0436,0.0162,0.0180,0.0054,0.0076,0.0074,0.0072,0.0016
1406,0.0435,0.0169,0.0184,0.0054,0.0071,0.0087,0.0081,0.0018
1407,0.0434,0.0169,0.0192,0.0054,0.0063,0.0078,0.0085,0.0019
1408,0.0434,0.0154,0.0174,0.0055,0.0056,0.0056,0.0057,0.0020
1409,0.0434,0.0179,0.0202,0.0056,0.0056,0.0097,0.0108,0.0023
1410,0.0435,0.0173,0.0198,0.0057,0.0056,0.0089,0.0100,0.0025
1411,0.0435,0.0189,0.0211,0.0059,0.0055,0.0111,0.0118,0.0029
1412,0.0435,0.0189,0.0202,0.0061,0.0055,0.0112,0.0107,0.0032
1413,0.0435,0.0212,0.0216,0.0063,0.0056,0.0136,0.0124,0.0035
1414,0.0436,0.0162,0.0180,0.0054,0.0076,0.0074,0.0072,0.0016
1415,0.0435,0.0270,0.0267,0.0170,0.0063,0.0180,0.0171,0.0117
1416,0.0434,0.0179,0.0188,0.0127,0.0060,0.0098,0.0084,0.0088
1417,0.0434,0.0185,0.0191,0.0136,0.0058,0.0106,0.0088,0.0097
1418,0.0434,0.0218,0.0226,0.0150,0.0059,0.0136,0.0130,0.0107
1419,0.0434,0.0229,0.0249,0.0136,0.0057,0.0148,0.0153,0.0097
1420,0.0434,0.0177,0.0208,0.0091,0.0053,0.0095,0.0110,0.0061
1421,0.0434,0.0160,0.0186,0.0071,0.0056,0.0068,0.0082,0.0043
1422,0.0434,0.0164,0.0188,0.0075,0.0056,0.0070,0.0081,0.0047
1423,0.0434,0.0164,0.0185,0.0071,0.0054,0.0067,0.0071,0.0043
1424,0.0434,0.0162,0.0182,0.0057,0.0056,0.0070,0.0073,0.0025
1425,0.0435,0.0169,0.0184,0.0054,0.0071,0.0087,0.0081,0.0018
1426,0.0434,0.0165,0.0186,0.0055,0.0056,0.0079,0.0084,0.0019
1427,0.0434,0.0158,0.0183,0.0054,0.0055,0.0067,0.0077,0.0018
1428,0.0434,0.0159,0.0184,0.0056,0.0054,0.0068,0.0080,0.0022
1429,0.0434,0.0179,0.0203,0.0070,0.0054,0.0098,0.0106,0.0043
1430,0.0434,0.0204,0.0221,0.0091,0.0055,0.0123,0.0123,0.0063
1431,0.0434,0.0210,0.0220,0.0101,0.0059,0.0128,0.0124,0.0069
1432,0.0434,0.0186,0.0199,0.0091,0.0064,0.0106,0.0100,0.0057
1433,0.0435,0.0173,0.0192,0.0082,0.0067,0.0084,0.0081,0.0050
1434,0.0434,0.0188,0.0200,0.0104,0.0062,0.0104,0.0095,0.0070
1435,0.0434,0.0323,0.0318,0.0222,0.0055,0.0220,0.0210,0.0153
1436,0.0434,0.0169,0.0192,0.0054,0.0063,0.0078,0.0085,0.0019
1437,0.0434,0.0160,0.0181,0.0054,0.0058,0.0073,0.0076,0.0016
1438,0.0434,0.0160,0.0181,0.0054,0.0058,0.0073,0.0076,0.0016
1439,0.0434,0.0160,0.0181,0.0054,0.0058,0.0073,0.0076,0.0016
1440,0.0434,0.0160,0.0181,0.0054,0.0058,0.0073,0.0076,0.0016
1441,0.0434,0.0160,0.0181,0.0054,0.0058,0.0073,0.0076,0.0016
1442,0.0434,0.0160,0.0181,0.0054,0.0058,0.0073,0.0076,0.0016
1443,0.0434,0.0160,0.0181,0.0054,0.0058,0.0073,0.0076,0.0016
1444,0.0434,0.0160,0.0181,0.0054,0.0058,0.0073,0.0076,0.0016
1445,0.0434,0.0160,0.0181,0.0054,0.0058,0.0073,0.0076,0.0016
1446,0.0434,0.0160,0.0181,0.0054,0.0058,0.0073,0.0076,0.0016
1447,0.0434,0.0154,0.0174,0.0055,0.0056,0.0056,0.0057,0.0020
1448,0.0434,0.0160,0.0181,0.0054,0.0058,0.0073,0.0076,0.0016
1449,0.0434,0.0160,0.0181,0.0054,0.0058,0.0073,0.0076,0.0016
1450,0.0434,0.0160,0.0181,0.0054,0.0058,0.0073,0.0076,0.0016
1451,0.0434,0.0160,0.0181,0.0054,0.0058,0.0073,0.0076,0.0016
1452,0.0434,0.0160,0.0181,0.0054,0.0058,0.0073,0.0076,0.0016
1453,0.0434,0.0160,0.0181,0.0054,0.0058,0.0073,0.0076,0.0016
1454,0.0434,0.0160,0.0181,0.0054,0.0058,0.0073,0.0076,0.0016
1455,0.0434,0.0160,0.0181,0.0054,0.0058,0.0073,0.0076,0.0016
1456,0.0434,0.0160,0.0181,0.0054,0.0058,0.0073,0.0076,0.0016
1457,0.0434,0.0160,0.0181,0.0054,0.0058,0.0073,0.0076,0.0016
1458,0.0434,0.0179,0.0202,0.0056,0.0056,0.0097,0.0108,0.0023
1459,0.0434,0.0160,0.0181,0.0054,0.0058,0.0073,0.0076,0.0016
1460,0.0434,0.0160,0.0181,0.0054,0.0058,0.0073,0.0076,0.0016
1461,0.0434,0.0160,0.0181,0.0054,0.0058,0.0073,0.0076,0.0016
1462,0.0434,0.0160,0.0181,0.0054,0.0058,0.0073,0.0076,0.0016
1463,0.0434,0.0160,0.0181,0.0054,0.0058,0.0073,0.0076,0.0016
1464,0.0434,0.0160,0.0181,0.0054,0.0058,0.0073,0.0076,0.0016
1465,0.0434,0.0160,0.0181,0.0054,0.0058,0.0073,0.0076,0.0016
1466,0.0434,0.0160,0.0181,0.0054,0.0058,0.0073,0.0076,0.0016
1467,0.0434,0.0160,0.0181,0.0054,0.0058,0.0073,0.0076,0.0016
1468,0.0434,0.0160,0.0181,0.0054,0.0058,0.0073,0.0076,0.0016
1469,0.0435,0.0173,0.0198,0.0057,0.0056,0.0089,0.0100,0.0025
1470,0.0434,0.0160,0.0181,0.0054,0.0058,0.0073,0.0076,0.0016
1471,0.0434,0.0160,0.0181,0.0054,0.0058,0.0073,0.0076,0.0016
1472,0.0434,0.0160,0.0181,0.0054,0.0058,0.0073,0.0076,0.0016
1473,0.0434,0.0160,0.0181,0.0054,0.0058,0.0073,0.0076,0.0016
1474,0.0434,0.0160,0.0181,0.0054,0.0058,0.0073,0.0076,0.0016
1475,0.0437,0.0160,0.0215,0.0060,0.0074,0.0068,0.0114,0.0029
1476,0.0436,0.0161,0.0208,0.0061,0.0068,0.0069,0.0106,0.0029
1477,0.0435,0.0161,0.0205,0.0061,0.0064,0.0070,0.0102,0.0030
1478,0.0435,0.0158,0.0194,0.0062,0.0061,0.0067,0.0092,0.0031
1479,0.0434,0.0179,0.0202,0.0056,0.0056,0.0097,0.0108,0.0023
1480,0.0435,0.0189,0.0211,0.0059,0.0055,0.0111,0.0118,0.0029
1481,0.0434,0.0157,0.0187,0.0060,0.0060,0.0063,0.0083,0.0028
1482,0.0434,0.0155,0.0180,0.0058,0.0061,0.0058,0.0070,0.0025
1483,0.0434,0.0156,0.0182,0.0056,0.0061,0.0062,0.0077,0.0022
1484,0.0434,0.0157,0.0179,0.0055,0.0060,0.0062,0.0069,0.0019
1485,0.0434,0.0161,0.0185,0.0054,0.0058,0.0073,0.0081,0.0018
1486,0.0435,0.0156,0.0176,0.0054,0.0067,0.0061,0.0064,0.0015
1487,0.0436,0.0162,0.0180,0.0054,0.0076,0.0074,0.0072,0.0016
1488,0.0435,0.0169,0.0184,0.0054,0.0071,0.0087,0.0081,0.0018
1489,0.0434,0.0169,0.0192,0.0054,0.0063,0.0078,0.0085,0.0019
1490,0.0434,0.0154,0.0174,0.0055,0.0056,0.0056,0.0057,0.0020
1491,0.0435,0.0189,0.0202,0.0061,0.0055,0.0112,0.0107,0.0032
1492,0.0434,0.0179,0.0202,0.0056,0.0056,0.0097,0.0108,0.0023
1493,0.0435,0.0173,0.0198,0.0057,0.0056,0.0089,0.0100,0.0025
1494,0.0435,0.0189,0.0211,0.0059,0.0055,0.0111,0.0118,0.0029
1495,0.0435,0.0189,0.0202,0.0061,0.0055,0.0112,0.0107,0.0032
1496,0.0435,0.0212,0.0216,0.0063,0.0056,0.0136,0.0124,0.0035
1497,0.0435,0.0270,0.0267,0.0170,0.0063,0.0180,0.0171,0.0117
1498,0.0434,0.0179,0.0188,0.0127,0.0060,0.0098,0.0084,0.0088
1499,0.0434,0.0185,0.0191,0.0136,0.0058,0.0106,0.0088,0.0097
Total Error Summary
Vdc  MAE=  0.0061 RMSE=  0.0434
Idc  MAE=  0.0085 RMSE=  0.0184
Id   MAE=  0.0085 RMSE=  0.0195
Iq   MAE=  0.0029 RMSE=  0.0070
